#  E (eV)   dos(E)     Int dos(E) EFermi =    6.194 eV
  -9.000  0.0000E+00  0.0000E+00
  -8.990  0.0000E+00  0.0000E+00
  -8.980  0.0000E+00  0.0000E+00
  -8.970  0.0000E+00  0.0000E+00
  -8.960  0.0000E+00  0.0000E+00
  -8.950  0.0000E+00  0.0000E+00
  -8.940  0.0000E+00  0.0000E+00
  -8.930  0.0000E+00  0.0000E+00
  -8.920  0.0000E+00  0.0000E+00
  -8.910  0.0000E+00  0.0000E+00
  -8.900  0.0000E+00  0.0000E+00
  -8.890  0.0000E+00  0.0000E+00
  -8.880  0.0000E+00  0.0000E+00
  -8.870  0.0000E+00  0.0000E+00
  -8.860  0.0000E+00  0.0000E+00
  -8.850  0.0000E+00  0.0000E+00
  -8.840  0.0000E+00  0.0000E+00
  -8.830  0.0000E+00  0.0000E+00
  -8.820  0.0000E+00  0.0000E+00
  -8.810  0.0000E+00  0.0000E+00
  -8.800  0.0000E+00  0.0000E+00
  -8.790  0.0000E+00  0.0000E+00
  -8.780  0.0000E+00  0.0000E+00
  -8.770  0.0000E+00  0.0000E+00
  -8.760  0.0000E+00  0.0000E+00
  -8.750  0.0000E+00  0.0000E+00
  -8.740  0.0000E+00  0.0000E+00
  -8.730  0.0000E+00  0.0000E+00
  -8.720  0.0000E+00  0.0000E+00
  -8.710  0.0000E+00  0.0000E+00
  -8.700  0.0000E+00  0.0000E+00
  -8.690  0.0000E+00  0.0000E+00
  -8.680  0.0000E+00  0.0000E+00
  -8.670  0.0000E+00  0.0000E+00
  -8.660  0.0000E+00  0.0000E+00
  -8.650  0.0000E+00  0.0000E+00
  -8.640  0.0000E+00  0.0000E+00
  -8.630  0.0000E+00  0.0000E+00
  -8.620  0.0000E+00  0.0000E+00
  -8.610  0.0000E+00  0.0000E+00
  -8.600  0.0000E+00  0.0000E+00
  -8.590  0.0000E+00  0.0000E+00
  -8.580  0.0000E+00  0.0000E+00
  -8.570  0.0000E+00  0.0000E+00
  -8.560  0.0000E+00  0.0000E+00
  -8.550  0.0000E+00  0.0000E+00
  -8.540  0.0000E+00  0.0000E+00
  -8.530  0.0000E+00  0.0000E+00
  -8.520  0.0000E+00  0.0000E+00
  -8.510  0.0000E+00  0.0000E+00
  -8.500  0.0000E+00  0.0000E+00
  -8.490  0.0000E+00  0.0000E+00
  -8.480  0.0000E+00  0.0000E+00
  -8.470  0.0000E+00  0.0000E+00
  -8.460  0.0000E+00  0.0000E+00
  -8.450  0.0000E+00  0.0000E+00
  -8.440  0.0000E+00  0.0000E+00
  -8.430  0.0000E+00  0.0000E+00
  -8.420  0.0000E+00  0.0000E+00
  -8.410  0.0000E+00  0.0000E+00
  -8.400  0.0000E+00  0.0000E+00
  -8.390  0.0000E+00  0.0000E+00
  -8.380  0.0000E+00  0.0000E+00
  -8.370  0.0000E+00  0.0000E+00
  -8.360  0.0000E+00  0.0000E+00
  -8.350  0.0000E+00  0.0000E+00
  -8.340  0.0000E+00  0.0000E+00
  -8.330  0.0000E+00  0.0000E+00
  -8.320  0.0000E+00  0.0000E+00
  -8.310  0.0000E+00  0.0000E+00
  -8.300  0.0000E+00  0.0000E+00
  -8.290  0.0000E+00  0.0000E+00
  -8.280  0.0000E+00  0.0000E+00
  -8.270  0.0000E+00  0.0000E+00
  -8.260  0.0000E+00  0.0000E+00
  -8.250  0.0000E+00  0.0000E+00
  -8.240  0.0000E+00  0.0000E+00
  -8.230  0.0000E+00  0.0000E+00
  -8.220  0.0000E+00  0.0000E+00
  -8.210  0.0000E+00  0.0000E+00
  -8.200  0.0000E+00  0.0000E+00
  -8.190  0.0000E+00  0.0000E+00
  -8.180  0.0000E+00  0.0000E+00
  -8.170  0.0000E+00  0.0000E+00
  -8.160  0.0000E+00  0.0000E+00
  -8.150  0.0000E+00  0.0000E+00
  -8.140  0.0000E+00  0.0000E+00
  -8.130  0.0000E+00  0.0000E+00
  -8.120  0.0000E+00  0.0000E+00
  -8.110  0.0000E+00  0.0000E+00
  -8.100  0.0000E+00  0.0000E+00
  -8.090  0.0000E+00  0.0000E+00
  -8.080  0.0000E+00  0.0000E+00
  -8.070  0.0000E+00  0.0000E+00
  -8.060  0.0000E+00  0.0000E+00
  -8.050  0.0000E+00  0.0000E+00
  -8.040  0.0000E+00  0.0000E+00
  -8.030  0.0000E+00  0.0000E+00
  -8.020  0.0000E+00  0.0000E+00
  -8.010  0.0000E+00  0.0000E+00
  -8.000  0.0000E+00  0.0000E+00
  -7.990  0.0000E+00  0.0000E+00
  -7.980  0.0000E+00  0.0000E+00
  -7.970  0.0000E+00  0.0000E+00
  -7.960  0.0000E+00  0.0000E+00
  -7.950  0.0000E+00  0.0000E+00
  -7.940  0.0000E+00  0.0000E+00
  -7.930  0.0000E+00  0.0000E+00
  -7.920  0.0000E+00  0.0000E+00
  -7.910  0.0000E+00  0.0000E+00
  -7.900  0.0000E+00  0.0000E+00
  -7.890  0.0000E+00  0.0000E+00
  -7.880  0.0000E+00  0.0000E+00
  -7.870  0.0000E+00  0.0000E+00
  -7.860  0.0000E+00  0.0000E+00
  -7.850  0.0000E+00  0.0000E+00
  -7.840  0.0000E+00  0.0000E+00
  -7.830  0.0000E+00  0.0000E+00
  -7.820  0.0000E+00  0.0000E+00
  -7.810  0.0000E+00  0.0000E+00
  -7.800  0.0000E+00  0.0000E+00
  -7.790  0.0000E+00  0.0000E+00
  -7.780  0.0000E+00  0.0000E+00
  -7.770  0.0000E+00  0.0000E+00
  -7.760  0.0000E+00  0.0000E+00
  -7.750  0.0000E+00  0.0000E+00
  -7.740  0.0000E+00  0.0000E+00
  -7.730  0.0000E+00  0.0000E+00
  -7.720  0.0000E+00  0.0000E+00
  -7.710  0.0000E+00  0.0000E+00
  -7.700  0.0000E+00  0.0000E+00
  -7.690  0.0000E+00  0.0000E+00
  -7.680  0.0000E+00  0.0000E+00
  -7.670  0.0000E+00  0.0000E+00
  -7.660  0.0000E+00  0.0000E+00
  -7.650  0.0000E+00  0.0000E+00
  -7.640  0.0000E+00  0.0000E+00
  -7.630  0.0000E+00  0.0000E+00
  -7.620  0.0000E+00  0.0000E+00
  -7.610  0.0000E+00  0.0000E+00
  -7.600  0.0000E+00  0.0000E+00
  -7.590  0.0000E+00  0.0000E+00
  -7.580  0.0000E+00  0.0000E+00
  -7.570  0.0000E+00  0.0000E+00
  -7.560  0.0000E+00  0.0000E+00
  -7.550  0.0000E+00  0.0000E+00
  -7.540  0.0000E+00  0.0000E+00
  -7.530  0.0000E+00  0.0000E+00
  -7.520  0.0000E+00  0.0000E+00
  -7.510  0.0000E+00  0.0000E+00
  -7.500  0.0000E+00  0.0000E+00
  -7.490  0.0000E+00  0.0000E+00
  -7.480  0.0000E+00  0.0000E+00
  -7.470  0.0000E+00  0.0000E+00
  -7.460  0.0000E+00  0.0000E+00
  -7.450  0.0000E+00  0.0000E+00
  -7.440  0.0000E+00  0.0000E+00
  -7.430  0.0000E+00  0.0000E+00
  -7.420  0.0000E+00  0.0000E+00
  -7.410  0.0000E+00  0.0000E+00
  -7.400  0.0000E+00  0.0000E+00
  -7.390  0.0000E+00  0.0000E+00
  -7.380  0.0000E+00  0.0000E+00
  -7.370  0.0000E+00  0.0000E+00
  -7.360  0.0000E+00  0.0000E+00
  -7.350  0.0000E+00  0.0000E+00
  -7.340  0.0000E+00  0.0000E+00
  -7.330  0.0000E+00  0.0000E+00
  -7.320  0.0000E+00  0.0000E+00
  -7.310  0.0000E+00  0.0000E+00
  -7.300  0.0000E+00  0.0000E+00
  -7.290  0.0000E+00  0.0000E+00
  -7.280  0.0000E+00  0.0000E+00
  -7.270  0.0000E+00  0.0000E+00
  -7.260  0.0000E+00  0.0000E+00
  -7.250  0.0000E+00  0.0000E+00
  -7.240  0.0000E+00  0.0000E+00
  -7.230  0.0000E+00  0.0000E+00
  -7.220  0.0000E+00  0.0000E+00
  -7.210  0.0000E+00  0.0000E+00
  -7.200  0.0000E+00  0.0000E+00
  -7.190  0.0000E+00  0.0000E+00
  -7.180  0.0000E+00  0.0000E+00
  -7.170  0.0000E+00  0.0000E+00
  -7.160  0.0000E+00  0.0000E+00
  -7.150  0.0000E+00  0.0000E+00
  -7.140  0.0000E+00  0.0000E+00
  -7.130  0.0000E+00  0.0000E+00
  -7.120  0.0000E+00  0.0000E+00
  -7.110  0.0000E+00  0.0000E+00
  -7.100  0.0000E+00  0.0000E+00
  -7.090  0.0000E+00  0.0000E+00
  -7.080  0.0000E+00  0.0000E+00
  -7.070  0.0000E+00  0.0000E+00
  -7.060  0.0000E+00  0.0000E+00
  -7.050  0.0000E+00  0.0000E+00
  -7.040  0.0000E+00  0.0000E+00
  -7.030  0.0000E+00  0.0000E+00
  -7.020  0.0000E+00  0.0000E+00
  -7.010  0.0000E+00  0.0000E+00
  -7.000  0.0000E+00  0.0000E+00
  -6.990  0.0000E+00  0.0000E+00
  -6.980  0.0000E+00  0.0000E+00
  -6.970  0.0000E+00  0.0000E+00
  -6.960  0.0000E+00  0.0000E+00
  -6.950  0.0000E+00  0.0000E+00
  -6.940  0.0000E+00  0.0000E+00
  -6.930  0.0000E+00  0.0000E+00
  -6.920  0.0000E+00  0.0000E+00
  -6.910  0.0000E+00  0.0000E+00
  -6.900  0.0000E+00  0.0000E+00
  -6.890  0.0000E+00  0.0000E+00
  -6.880  0.0000E+00  0.0000E+00
  -6.870  0.0000E+00  0.0000E+00
  -6.860  0.0000E+00  0.0000E+00
  -6.850  0.0000E+00  0.0000E+00
  -6.840  0.0000E+00  0.0000E+00
  -6.830  0.0000E+00  0.0000E+00
  -6.820  0.0000E+00  0.0000E+00
  -6.810  0.0000E+00  0.0000E+00
  -6.800  0.0000E+00  0.0000E+00
  -6.790  0.0000E+00  0.0000E+00
  -6.780  0.0000E+00  0.0000E+00
  -6.770  0.0000E+00  0.0000E+00
  -6.760  0.0000E+00  0.0000E+00
  -6.750  0.0000E+00  0.0000E+00
  -6.740  0.0000E+00  0.0000E+00
  -6.730  0.0000E+00  0.0000E+00
  -6.720  0.0000E+00  0.0000E+00
  -6.710  0.0000E+00  0.0000E+00
  -6.700  0.0000E+00  0.0000E+00
  -6.690  0.0000E+00  0.0000E+00
  -6.680  0.0000E+00  0.0000E+00
  -6.670  0.0000E+00  0.0000E+00
  -6.660  0.0000E+00  0.0000E+00
  -6.650  0.0000E+00  0.0000E+00
  -6.640  0.0000E+00  0.0000E+00
  -6.630  0.0000E+00  0.0000E+00
  -6.620  0.0000E+00  0.0000E+00
  -6.610  0.0000E+00  0.0000E+00
  -6.600  0.0000E+00  0.0000E+00
  -6.590  0.0000E+00  0.0000E+00
  -6.580  0.0000E+00  0.0000E+00
  -6.570  0.0000E+00  0.0000E+00
  -6.560  0.0000E+00  0.0000E+00
  -6.550  0.0000E+00  0.0000E+00
  -6.540  0.0000E+00  0.0000E+00
  -6.530  0.0000E+00  0.0000E+00
  -6.520  0.0000E+00  0.0000E+00
  -6.510  0.0000E+00  0.0000E+00
  -6.500  0.0000E+00  0.0000E+00
  -6.490  0.0000E+00  0.0000E+00
  -6.480  0.0000E+00  0.0000E+00
  -6.470  0.0000E+00  0.0000E+00
  -6.460  0.0000E+00  0.0000E+00
  -6.450  0.0000E+00  0.0000E+00
  -6.440  0.0000E+00  0.0000E+00
  -6.430  0.0000E+00  0.0000E+00
  -6.420  0.0000E+00  0.0000E+00
  -6.410  0.0000E+00  0.0000E+00
  -6.400  0.0000E+00  0.0000E+00
  -6.390  0.0000E+00  0.0000E+00
  -6.380  0.0000E+00  0.0000E+00
  -6.370  0.0000E+00  0.0000E+00
  -6.360  0.0000E+00  0.0000E+00
  -6.350  0.0000E+00  0.0000E+00
  -6.340  0.0000E+00  0.0000E+00
  -6.330  0.0000E+00  0.0000E+00
  -6.320  0.0000E+00  0.0000E+00
  -6.310  0.0000E+00  0.0000E+00
  -6.300  0.0000E+00  0.0000E+00
  -6.290  0.0000E+00  0.0000E+00
  -6.280  0.0000E+00  0.0000E+00
  -6.270  0.0000E+00  0.0000E+00
  -6.260  0.0000E+00  0.0000E+00
  -6.250  0.0000E+00  0.0000E+00
  -6.240  0.0000E+00  0.0000E+00
  -6.230  0.0000E+00  0.0000E+00
  -6.220  0.0000E+00  0.0000E+00
  -6.210  0.0000E+00  0.0000E+00
  -6.200  0.0000E+00  0.0000E+00
  -6.190  0.0000E+00  0.0000E+00
  -6.180  0.0000E+00  0.0000E+00
  -6.170  0.0000E+00  0.0000E+00
  -6.160  0.0000E+00  0.0000E+00
  -6.150  0.0000E+00  0.0000E+00
  -6.140  0.0000E+00  0.0000E+00
  -6.130  0.0000E+00  0.0000E+00
  -6.120  0.0000E+00  0.0000E+00
  -6.110  0.0000E+00  0.0000E+00
  -6.100  0.0000E+00  0.0000E+00
  -6.090  0.0000E+00  0.0000E+00
  -6.080  0.0000E+00  0.0000E+00
  -6.070  0.0000E+00  0.0000E+00
  -6.060  0.0000E+00  0.0000E+00
  -6.050  0.0000E+00  0.0000E+00
  -6.040  0.0000E+00  0.0000E+00
  -6.030  0.0000E+00  0.0000E+00
  -6.020  0.0000E+00  0.0000E+00
  -6.010  0.0000E+00  0.0000E+00
  -6.000  0.0000E+00  0.0000E+00
  -5.990  0.0000E+00  0.0000E+00
  -5.980  0.0000E+00  0.0000E+00
  -5.970  0.0000E+00  0.0000E+00
  -5.960  0.0000E+00  0.0000E+00
  -5.950  0.0000E+00  0.0000E+00
  -5.940  0.0000E+00  0.0000E+00
  -5.930  0.0000E+00  0.0000E+00
  -5.920  0.0000E+00  0.0000E+00
  -5.910  0.0000E+00  0.0000E+00
  -5.900  0.0000E+00  0.0000E+00
  -5.890  0.0000E+00  0.0000E+00
  -5.880  0.0000E+00  0.0000E+00
  -5.870  0.0000E+00  0.0000E+00
  -5.860  0.0000E+00  0.0000E+00
  -5.850  0.0000E+00  0.0000E+00
  -5.840  0.0000E+00  0.0000E+00
  -5.830  0.0000E+00  0.0000E+00
  -5.820  0.2123E-03  0.4022E-06
  -5.810  0.1617E-02  0.8451E-05
  -5.800  0.4335E-02  0.3712E-04
  -5.790  0.8369E-02  0.9954E-04
  -5.780  0.1372E-01  0.2089E-03
  -5.770  0.2038E-01  0.3783E-03
  -5.760  0.2836E-01  0.6208E-03
  -5.750  0.3765E-01  0.9498E-03
  -5.740  0.4825E-01  0.1378E-02
  -5.730  0.1191E+00  0.2185E-02
  -5.720  0.1434E+00  0.3554E-02
  -5.710  0.9970E-01  0.4826E-02
  -5.700  0.9315E-01  0.5740E-02
  -5.690  0.9841E-01  0.6698E-02
  -5.680  0.1038E+00  0.7709E-02
  -5.670  0.1093E+00  0.8774E-02
  -5.660  0.1149E+00  0.9895E-02
  -5.650  0.1206E+00  0.1107E-01
  -5.640  0.1264E+00  0.1231E-01
  -5.630  0.1324E+00  0.1360E-01
  -5.620  0.1384E+00  0.1495E-01
  -5.610  0.1446E+00  0.1637E-01
  -5.600  0.1509E+00  0.1785E-01
  -5.590  0.1583E+00  0.1939E-01
  -5.580  0.1680E+00  0.2102E-01
  -5.570  0.1765E+00  0.2274E-01
  -5.560  0.1839E+00  0.2455E-01
  -5.550  0.1902E+00  0.2642E-01
  -5.540  0.1954E+00  0.2835E-01
  -5.530  0.1995E+00  0.3032E-01
  -5.520  0.2025E+00  0.3233E-01
  -5.510  0.2044E+00  0.3437E-01
  -5.500  0.1995E+00  0.3640E-01
  -5.490  0.1937E+00  0.3836E-01
  -5.480  0.1933E+00  0.4029E-01
  -5.470  0.1964E+00  0.4224E-01
  -5.460  0.1998E+00  0.4422E-01
  -5.450  0.2032E+00  0.4624E-01
  -5.440  0.2068E+00  0.4829E-01
  -5.430  0.2105E+00  0.5037E-01
  -5.420  0.2142E+00  0.5250E-01
  -5.410  0.2181E+00  0.5466E-01
  -5.400  0.2221E+00  0.5686E-01
  -5.390  0.2261E+00  0.5910E-01
  -5.380  0.2303E+00  0.6138E-01
  -5.370  0.2346E+00  0.6371E-01
  -5.360  0.2389E+00  0.6607E-01
  -5.350  0.2434E+00  0.6849E-01
  -5.340  0.2478E+00  0.7094E-01
  -5.330  0.2523E+00  0.7344E-01
  -5.320  0.2567E+00  0.7599E-01
  -5.310  0.2612E+00  0.7858E-01
  -5.300  0.2657E+00  0.8121E-01
  -5.290  0.2702E+00  0.8389E-01
  -5.280  0.2747E+00  0.8662E-01
  -5.270  0.2782E+00  0.8938E-01
  -5.260  0.2802E+00  0.9217E-01
  -5.250  0.2807E+00  0.9498E-01
  -5.240  0.2822E+00  0.9779E-01
  -5.230  0.2845E+00  0.1006E+00
  -5.220  0.2867E+00  0.1035E+00
  -5.210  0.2889E+00  0.1064E+00
  -5.200  0.2911E+00  0.1093E+00
  -5.190  0.2931E+00  0.1122E+00
  -5.180  0.2951E+00  0.1151E+00
  -5.170  0.2971E+00  0.1181E+00
  -5.160  0.2990E+00  0.1211E+00
  -5.150  0.3008E+00  0.1241E+00
  -5.140  0.3026E+00  0.1271E+00
  -5.130  0.3037E+00  0.1301E+00
  -5.120  0.3046E+00  0.1332E+00
  -5.110  0.3058E+00  0.1362E+00
  -5.100  0.3073E+00  0.1393E+00
  -5.090  0.3092E+00  0.1424E+00
  -5.080  0.3113E+00  0.1455E+00
  -5.070  0.3138E+00  0.1486E+00
  -5.060  0.3166E+00  0.1517E+00
  -5.050  0.3196E+00  0.1549E+00
  -5.040  0.3229E+00  0.1581E+00
  -5.030  0.3264E+00  0.1614E+00
  -5.020  0.3298E+00  0.1647E+00
  -5.010  0.3333E+00  0.1680E+00
  -5.000  0.3369E+00  0.1713E+00
  -4.990  0.3404E+00  0.1747E+00
  -4.980  0.3440E+00  0.1781E+00
  -4.970  0.3476E+00  0.1816E+00
  -4.960  0.3512E+00  0.1851E+00
  -4.950  0.3548E+00  0.1886E+00
  -4.940  0.3585E+00  0.1922E+00
  -4.930  0.3621E+00  0.1958E+00
  -4.920  0.3658E+00  0.1994E+00
  -4.910  0.3696E+00  0.2031E+00
  -4.900  0.3730E+00  0.2068E+00
  -4.890  0.3760E+00  0.2106E+00
  -4.880  0.3785E+00  0.2143E+00
  -4.870  0.3806E+00  0.2181E+00
  -4.860  0.3823E+00  0.2219E+00
  -4.850  0.3835E+00  0.2258E+00
  -4.840  0.3843E+00  0.2296E+00
  -4.830  0.3846E+00  0.2334E+00
  -4.820  0.3846E+00  0.2373E+00
  -4.810  0.3873E+00  0.2412E+00
  -4.800  0.3900E+00  0.2450E+00
  -4.790  0.3921E+00  0.2490E+00
  -4.780  0.3943E+00  0.2529E+00
  -4.770  0.3964E+00  0.2568E+00
  -4.760  0.3985E+00  0.2608E+00
  -4.750  0.4007E+00  0.2648E+00
  -4.740  0.4029E+00  0.2688E+00
  -4.730  0.4051E+00  0.2729E+00
  -4.720  0.4072E+00  0.2769E+00
  -4.710  0.4095E+00  0.2810E+00
  -4.700  0.4117E+00  0.2851E+00
  -4.690  0.4139E+00  0.2892E+00
  -4.680  0.4162E+00  0.2934E+00
  -4.670  0.4183E+00  0.2976E+00
  -4.660  0.4205E+00  0.3018E+00
  -4.650  0.4226E+00  0.3060E+00
  -4.640  0.4247E+00  0.3102E+00
  -4.630  0.4268E+00  0.3145E+00
  -4.620  0.4288E+00  0.3187E+00
  -4.610  0.4307E+00  0.3230E+00
  -4.600  0.4327E+00  0.3274E+00
  -4.590  0.4351E+00  0.3317E+00
  -4.580  0.4376E+00  0.3361E+00
  -4.570  0.4404E+00  0.3405E+00
  -4.560  0.4433E+00  0.3449E+00
  -4.550  0.4462E+00  0.3493E+00
  -4.540  0.4492E+00  0.3538E+00
  -4.530  0.4523E+00  0.3583E+00
  -4.520  0.4555E+00  0.3628E+00
  -4.510  0.4587E+00  0.3674E+00
  -4.500  0.4621E+00  0.3720E+00
  -4.490  0.4654E+00  0.3767E+00
  -4.480  0.4688E+00  0.3813E+00
  -4.470  0.4722E+00  0.3860E+00
  -4.460  0.4757E+00  0.3908E+00
  -4.450  0.4792E+00  0.3955E+00
  -4.440  0.4827E+00  0.4004E+00
  -4.430  0.4863E+00  0.4052E+00
  -4.420  0.4899E+00  0.4101E+00
  -4.410  0.4935E+00  0.4150E+00
  -4.400  0.4971E+00  0.4200E+00
  -4.390  0.4995E+00  0.4249E+00
  -4.380  0.5014E+00  0.4299E+00
  -4.370  0.5030E+00  0.4350E+00
  -4.360  0.5048E+00  0.4400E+00
  -4.350  0.5071E+00  0.4451E+00
  -4.340  0.5092E+00  0.4501E+00
  -4.330  0.5113E+00  0.4552E+00
  -4.320  0.5134E+00  0.4604E+00
  -4.310  0.5154E+00  0.4655E+00
  -4.300  0.5173E+00  0.4707E+00
  -4.290  0.5191E+00  0.4759E+00
  -4.280  0.5209E+00  0.4811E+00
  -4.270  0.5229E+00  0.4863E+00
  -4.260  0.5253E+00  0.4915E+00
  -4.250  0.5281E+00  0.4968E+00
  -4.240  0.5313E+00  0.5021E+00
  -4.230  0.5349E+00  0.5074E+00
  -4.220  0.5382E+00  0.5128E+00
  -4.210  0.5412E+00  0.5182E+00
  -4.200  0.5442E+00  0.5236E+00
  -4.190  0.5473E+00  0.5291E+00
  -4.180  0.5505E+00  0.5345E+00
  -4.170  0.5537E+00  0.5401E+00
  -4.160  0.5569E+00  0.5456E+00
  -4.150  0.5601E+00  0.5512E+00
  -4.140  0.5634E+00  0.5568E+00
  -4.130  0.5667E+00  0.5625E+00
  -4.120  0.5700E+00  0.5682E+00
  -4.110  0.5733E+00  0.5739E+00
  -4.100  0.5766E+00  0.5796E+00
  -4.090  0.5800E+00  0.5854E+00
  -4.080  0.5833E+00  0.5912E+00
  -4.070  0.5867E+00  0.5971E+00
  -4.060  0.5901E+00  0.6030E+00
  -4.050  0.5936E+00  0.6089E+00
  -4.040  0.5970E+00  0.6148E+00
  -4.030  0.6005E+00  0.6208E+00
  -4.020  0.6039E+00  0.6268E+00
  -4.010  0.6074E+00  0.6329E+00
  -4.000  0.6113E+00  0.6390E+00
  -3.990  0.6155E+00  0.6451E+00
  -3.980  0.6199E+00  0.6513E+00
  -3.970  0.6244E+00  0.6575E+00
  -3.960  0.6290E+00  0.6638E+00
  -3.950  0.6338E+00  0.6701E+00
  -3.940  0.6387E+00  0.6765E+00
  -3.930  0.6438E+00  0.6829E+00
  -3.920  0.6490E+00  0.6893E+00
  -3.910  0.6543E+00  0.6959E+00
  -3.900  0.6598E+00  0.7024E+00
  -3.890  0.6654E+00  0.7091E+00
  -3.880  0.6712E+00  0.7157E+00
  -3.870  0.6771E+00  0.7225E+00
  -3.860  0.6831E+00  0.7293E+00
  -3.850  0.6892E+00  0.7361E+00
  -3.840  0.6954E+00  0.7431E+00
  -3.830  0.7015E+00  0.7500E+00
  -3.820  0.7078E+00  0.7571E+00
  -3.810  0.7140E+00  0.7642E+00
  -3.800  0.7202E+00  0.7714E+00
  -3.790  0.7262E+00  0.7786E+00
  -3.780  0.7329E+00  0.7859E+00
  -3.770  0.7400E+00  0.7933E+00
  -3.760  0.7472E+00  0.8007E+00
  -3.750  0.7547E+00  0.8082E+00
  -3.740  0.7623E+00  0.8158E+00
  -3.730  0.7700E+00  0.8235E+00
  -3.720  0.7779E+00  0.8312E+00
  -3.710  0.7860E+00  0.8390E+00
  -3.700  0.7943E+00  0.8469E+00
  -3.690  0.8027E+00  0.8549E+00
  -3.680  0.8187E+00  0.8630E+00
  -3.670  0.8792E+00  0.8715E+00
  -3.660  0.8960E+00  0.8804E+00
  -3.650  0.9110E+00  0.8894E+00
  -3.640  0.9242E+00  0.8986E+00
  -3.630  0.9355E+00  0.9079E+00
  -3.620  0.9451E+00  0.9173E+00
  -3.610  0.9527E+00  0.9268E+00
  -3.600  0.9586E+00  0.9364E+00
  -3.590  0.9611E+00  0.9460E+00
  -3.580  0.9564E+00  0.9556E+00
  -3.570  0.9441E+00  0.9651E+00
  -3.560  0.9240E+00  0.9744E+00
  -3.550  0.9207E+00  0.9836E+00
  -3.540  0.9180E+00  0.9928E+00
  -3.530  0.9154E+00  0.1002E+01
  -3.520  0.9129E+00  0.1011E+01
  -3.510  0.9104E+00  0.1020E+01
  -3.500  0.9081E+00  0.1029E+01
  -3.490  0.9059E+00  0.1038E+01
  -3.480  0.9038E+00  0.1047E+01
  -3.470  0.9018E+00  0.1056E+01
  -3.460  0.8998E+00  0.1066E+01
  -3.450  0.8980E+00  0.1074E+01
  -3.440  0.8963E+00  0.1083E+01
  -3.430  0.8946E+00  0.1092E+01
  -3.420  0.8928E+00  0.1101E+01
  -3.410  0.8909E+00  0.1110E+01
  -3.400  0.8888E+00  0.1119E+01
  -3.390  0.8866E+00  0.1128E+01
  -3.380  0.8844E+00  0.1137E+01
  -3.370  0.8820E+00  0.1146E+01
  -3.360  0.8761E+00  0.1155E+01
  -3.350  0.8675E+00  0.1163E+01
  -3.340  0.8623E+00  0.1172E+01
  -3.330  0.8605E+00  0.1181E+01
  -3.320  0.8595E+00  0.1189E+01
  -3.310  0.8581E+00  0.1198E+01
  -3.300  0.8563E+00  0.1206E+01
  -3.290  0.8540E+00  0.1215E+01
  -3.280  0.8513E+00  0.1223E+01
  -3.270  0.8482E+00  0.1232E+01
  -3.260  0.8463E+00  0.1240E+01
  -3.250  0.8470E+00  0.1249E+01
  -3.240  0.8501E+00  0.1257E+01
  -3.230  0.8556E+00  0.1266E+01
  -3.220  0.8550E+00  0.1274E+01
  -3.210  0.8490E+00  0.1283E+01
  -3.200  0.8418E+00  0.1291E+01
  -3.190  0.8346E+00  0.1300E+01
  -3.180  0.8276E+00  0.1308E+01
  -3.170  0.8210E+00  0.1316E+01
  -3.160  0.8148E+00  0.1324E+01
  -3.150  0.8089E+00  0.1333E+01
  -3.140  0.8033E+00  0.1341E+01
  -3.130  0.7980E+00  0.1349E+01
  -3.120  0.7931E+00  0.1357E+01
  -3.110  0.7886E+00  0.1365E+01
  -3.100  0.7843E+00  0.1372E+01
  -3.090  0.7792E+00  0.1380E+01
  -3.080  0.7740E+00  0.1388E+01
  -3.070  0.7689E+00  0.1396E+01
  -3.060  0.7640E+00  0.1403E+01
  -3.050  0.7593E+00  0.1411E+01
  -3.040  0.7546E+00  0.1419E+01
  -3.030  0.7502E+00  0.1426E+01
  -3.020  0.7457E+00  0.1434E+01
  -3.010  0.7414E+00  0.1441E+01
  -3.000  0.7373E+00  0.1448E+01
  -2.990  0.7334E+00  0.1456E+01
  -2.980  0.7296E+00  0.1463E+01
  -2.970  0.7260E+00  0.1470E+01
  -2.960  0.7226E+00  0.1478E+01
  -2.950  0.7194E+00  0.1485E+01
  -2.940  0.7163E+00  0.1492E+01
  -2.930  0.7134E+00  0.1499E+01
  -2.920  0.7106E+00  0.1506E+01
  -2.910  0.7081E+00  0.1513E+01
  -2.900  0.7055E+00  0.1520E+01
  -2.890  0.7029E+00  0.1527E+01
  -2.880  0.7003E+00  0.1534E+01
  -2.870  0.6975E+00  0.1541E+01
  -2.860  0.6948E+00  0.1548E+01
  -2.850  0.6919E+00  0.1555E+01
  -2.840  0.6891E+00  0.1562E+01
  -2.830  0.6861E+00  0.1569E+01
  -2.820  0.6831E+00  0.1576E+01
  -2.810  0.6801E+00  0.1583E+01
  -2.800  0.6770E+00  0.1590E+01
  -2.790  0.6739E+00  0.1596E+01
  -2.780  0.6707E+00  0.1603E+01
  -2.770  0.6674E+00  0.1610E+01
  -2.760  0.6641E+00  0.1616E+01
  -2.750  0.6622E+00  0.1623E+01
  -2.740  0.6643E+00  0.1630E+01
  -2.730  0.6705E+00  0.1636E+01
  -2.720  0.6806E+00  0.1643E+01
  -2.710  0.6944E+00  0.1650E+01
  -2.700  0.7121E+00  0.1657E+01
  -2.690  0.6403E+00  0.1664E+01
  -2.680  0.6376E+00  0.1670E+01
  -2.670  0.6351E+00  0.1677E+01
  -2.660  0.6325E+00  0.1683E+01
  -2.650  0.6299E+00  0.1689E+01
  -2.640  0.6273E+00  0.1696E+01
  -2.630  0.6246E+00  0.1702E+01
  -2.620  0.6219E+00  0.1708E+01
  -2.610  0.6192E+00  0.1714E+01
  -2.600  0.6165E+00  0.1720E+01
  -2.590  0.6137E+00  0.1727E+01
  -2.580  0.6109E+00  0.1733E+01
  -2.570  0.6081E+00  0.1739E+01
  -2.560  0.6053E+00  0.1745E+01
  -2.550  0.6024E+00  0.1751E+01
  -2.540  0.5995E+00  0.1757E+01
  -2.530  0.5966E+00  0.1763E+01
  -2.520  0.5936E+00  0.1769E+01
  -2.510  0.5906E+00  0.1775E+01
  -2.500  0.5876E+00  0.1781E+01
  -2.490  0.5846E+00  0.1786E+01
  -2.480  0.5815E+00  0.1792E+01
  -2.470  0.5784E+00  0.1798E+01
  -2.460  0.5753E+00  0.1804E+01
  -2.450  0.5725E+00  0.1810E+01
  -2.440  0.5711E+00  0.1815E+01
  -2.430  0.5702E+00  0.1821E+01
  -2.420  0.5688E+00  0.1827E+01
  -2.410  0.5670E+00  0.1832E+01
  -2.400  0.5645E+00  0.1838E+01
  -2.390  0.5616E+00  0.1844E+01
  -2.380  0.5585E+00  0.1849E+01
  -2.370  0.5551E+00  0.1855E+01
  -2.360  0.5513E+00  0.1860E+01
  -2.350  0.5473E+00  0.1866E+01
  -2.340  0.5430E+00  0.1871E+01
  -2.330  0.5384E+00  0.1877E+01
  -2.320  0.5319E+00  0.1882E+01
  -2.310  0.5241E+00  0.1887E+01
  -2.300  0.5153E+00  0.1893E+01
  -2.290  0.5054E+00  0.1898E+01
  -2.280  0.4945E+00  0.1903E+01
  -2.270  0.4826E+00  0.1908E+01
  -2.260  0.4695E+00  0.1912E+01
  -2.250  0.4555E+00  0.1917E+01
  -2.240  0.4404E+00  0.1921E+01
  -2.230  0.4242E+00  0.1926E+01
  -2.220  0.4047E+00  0.1930E+01
  -2.210  0.3860E+00  0.1934E+01
  -2.200  0.3681E+00  0.1938E+01
  -2.190  0.3510E+00  0.1941E+01
  -2.180  0.3370E+00  0.1945E+01
  -2.170  0.3242E+00  0.1948E+01
  -2.160  0.3117E+00  0.1951E+01
  -2.150  0.2993E+00  0.1954E+01
  -2.140  0.2871E+00  0.1957E+01
  -2.130  0.2751E+00  0.1960E+01
  -2.120  0.2634E+00  0.1963E+01
  -2.110  0.2518E+00  0.1965E+01
  -2.100  0.2405E+00  0.1968E+01
  -2.090  0.2294E+00  0.1970E+01
  -2.080  0.2185E+00  0.1972E+01
  -2.070  0.2077E+00  0.1974E+01
  -2.060  0.1972E+00  0.1976E+01
  -2.050  0.1869E+00  0.1978E+01
  -2.040  0.1768E+00  0.1980E+01
  -2.030  0.1670E+00  0.1982E+01
  -2.020  0.1573E+00  0.1984E+01
  -2.010  0.1478E+00  0.1985E+01
  -2.000  0.1385E+00  0.1986E+01
  -1.990  0.1295E+00  0.1988E+01
  -1.980  0.1206E+00  0.1989E+01
  -1.970  0.1121E+00  0.1990E+01
  -1.960  0.1038E+00  0.1991E+01
  -1.950  0.9583E-01  0.1992E+01
  -1.940  0.8815E-01  0.1993E+01
  -1.930  0.8077E-01  0.1994E+01
  -1.920  0.7368E-01  0.1995E+01
  -1.910  0.6689E-01  0.1996E+01
  -1.900  0.6040E-01  0.1996E+01
  -1.890  0.5420E-01  0.1997E+01
  -1.880  0.4831E-01  0.1997E+01
  -1.870  0.4270E-01  0.1998E+01
  -1.860  0.3740E-01  0.1998E+01
  -1.850  0.3239E-01  0.1998E+01
  -1.840  0.2768E-01  0.1999E+01
  -1.830  0.2336E-01  0.1999E+01
  -1.820  0.1961E-01  0.1999E+01
  -1.810  0.1644E-01  0.1999E+01
  -1.800  0.1422E-01  0.2000E+01
  -1.790  0.1308E-01  0.2000E+01
  -1.780  0.1233E-01  0.2000E+01
  -1.770  0.1197E-01  0.2000E+01
  -1.760  0.1200E-01  0.2000E+01
  -1.750  0.1242E-01  0.2000E+01
  -1.740  0.1323E-01  0.2000E+01
  -1.730  0.1444E-01  0.2000E+01
  -1.720  0.1615E-01  0.2001E+01
  -1.710  0.1848E-01  0.2001E+01
  -1.700  0.2142E-01  0.2001E+01
  -1.690  0.2498E-01  0.2001E+01
  -1.680  0.2899E-01  0.2001E+01
  -1.670  0.3330E-01  0.2002E+01
  -1.660  0.3791E-01  0.2002E+01
  -1.650  0.4282E-01  0.2003E+01
  -1.640  0.4803E-01  0.2003E+01
  -1.630  0.5354E-01  0.2004E+01
  -1.620  0.5935E-01  0.2004E+01
  -1.610  0.6547E-01  0.2005E+01
  -1.600  0.7188E-01  0.2005E+01
  -1.590  0.7860E-01  0.2006E+01
  -1.580  0.8561E-01  0.2007E+01
  -1.570  0.9281E-01  0.2008E+01
  -1.560  0.1002E+00  0.2009E+01
  -1.550  0.1077E+00  0.2010E+01
  -1.540  0.1154E+00  0.2011E+01
  -1.530  0.1232E+00  0.2012E+01
  -1.520  0.1312E+00  0.2013E+01
  -1.510  0.1394E+00  0.2015E+01
  -1.500  0.1477E+00  0.2016E+01
  -1.490  0.1562E+00  0.2018E+01
  -1.480  0.1648E+00  0.2019E+01
  -1.470  0.1736E+00  0.2021E+01
  -1.460  0.1826E+00  0.2023E+01
  -1.450  0.1917E+00  0.2025E+01
  -1.440  0.2010E+00  0.2027E+01
  -1.430  0.2104E+00  0.2029E+01
  -1.420  0.2200E+00  0.2031E+01
  -1.410  0.2298E+00  0.2033E+01
  -1.400  0.2397E+00  0.2035E+01
  -1.390  0.2498E+00  0.2038E+01
  -1.380  0.2601E+00  0.2040E+01
  -1.370  0.2705E+00  0.2043E+01
  -1.360  0.2810E+00  0.2046E+01
  -1.350  0.2918E+00  0.2049E+01
  -1.340  0.3026E+00  0.2052E+01
  -1.330  0.3137E+00  0.2055E+01
  -1.320  0.3249E+00  0.2058E+01
  -1.310  0.3363E+00  0.2061E+01
  -1.300  0.3478E+00  0.2065E+01
  -1.290  0.3629E+00  0.2068E+01
  -1.280  0.3801E+00  0.2072E+01
  -1.270  0.3971E+00  0.2076E+01
  -1.260  0.4140E+00  0.2080E+01
  -1.250  0.4308E+00  0.2084E+01
  -1.240  0.4474E+00  0.2089E+01
  -1.230  0.4639E+00  0.2093E+01
  -1.220  0.4803E+00  0.2098E+01
  -1.210  0.4965E+00  0.2103E+01
  -1.200  0.5126E+00  0.2108E+01
  -1.190  0.5246E+00  0.2113E+01
  -1.180  0.5338E+00  0.2118E+01
  -1.170  0.5427E+00  0.2124E+01
  -1.160  0.5513E+00  0.2129E+01
  -1.150  0.5596E+00  0.2135E+01
  -1.140  0.5676E+00  0.2140E+01
  -1.130  0.5753E+00  0.2146E+01
  -1.120  0.5827E+00  0.2152E+01
  -1.110  0.5898E+00  0.2158E+01
  -1.100  0.5965E+00  0.2164E+01
  -1.090  0.6023E+00  0.2170E+01
  -1.080  0.6082E+00  0.2176E+01
  -1.070  0.6144E+00  0.2182E+01
  -1.060  0.6208E+00  0.2188E+01
  -1.050  0.6275E+00  0.2194E+01
  -1.040  0.6344E+00  0.2200E+01
  -1.030  0.6415E+00  0.2207E+01
  -1.020  0.6489E+00  0.2213E+01
  -1.010  0.6565E+00  0.2220E+01
  -1.000  0.6644E+00  0.2226E+01
  -0.990  0.6725E+00  0.2233E+01
  -0.980  0.6808E+00  0.2240E+01
  -0.970  0.6890E+00  0.2247E+01
  -0.960  0.6971E+00  0.2254E+01
  -0.950  0.7054E+00  0.2261E+01
  -0.940  0.7157E+00  0.2268E+01
  -0.930  0.7290E+00  0.2275E+01
  -0.920  0.7452E+00  0.2282E+01
  -0.910  0.7644E+00  0.2290E+01
  -0.900  0.7866E+00  0.2298E+01
  -0.890  0.8116E+00  0.2306E+01
  -0.880  0.8426E+00  0.2314E+01
  -0.870  0.8937E+00  0.2323E+01
  -0.860  0.9666E+00  0.2332E+01
  -0.850  0.1146E+01  0.2343E+01
  -0.840  0.1301E+01  0.2355E+01
  -0.830  0.1400E+01  0.2369E+01
  -0.820  0.1437E+01  0.2383E+01
  -0.810  0.1448E+01  0.2398E+01
  -0.800  0.1454E+01  0.2412E+01
  -0.790  0.1455E+01  0.2427E+01
  -0.780  0.1456E+01  0.2441E+01
  -0.770  0.1461E+01  0.2456E+01
  -0.760  0.1466E+01  0.2470E+01
  -0.750  0.1474E+01  0.2485E+01
  -0.740  0.1480E+01  0.2500E+01
  -0.730  0.1481E+01  0.2515E+01
  -0.720  0.1476E+01  0.2529E+01
  -0.710  0.1466E+01  0.2544E+01
  -0.700  0.1450E+01  0.2559E+01
  -0.690  0.1429E+01  0.2573E+01
  -0.680  0.1409E+01  0.2587E+01
  -0.670  0.1388E+01  0.2601E+01
  -0.660  0.1366E+01  0.2615E+01
  -0.650  0.1343E+01  0.2629E+01
  -0.640  0.1319E+01  0.2642E+01
  -0.630  0.1293E+01  0.2655E+01
  -0.620  0.1267E+01  0.2668E+01
  -0.610  0.1239E+01  0.2680E+01
  -0.600  0.1212E+01  0.2693E+01
  -0.590  0.1184E+01  0.2705E+01
  -0.580  0.1156E+01  0.2716E+01
  -0.570  0.1125E+01  0.2728E+01
  -0.560  0.1095E+01  0.2739E+01
  -0.550  0.1067E+01  0.2750E+01
  -0.540  0.1040E+01  0.2760E+01
  -0.530  0.1014E+01  0.2770E+01
  -0.520  0.9906E+00  0.2780E+01
  -0.510  0.9683E+00  0.2790E+01
  -0.500  0.9475E+00  0.2800E+01
  -0.490  0.9282E+00  0.2809E+01
  -0.480  0.9104E+00  0.2818E+01
  -0.470  0.8943E+00  0.2827E+01
  -0.460  0.8791E+00  0.2836E+01
  -0.450  0.8647E+00  0.2845E+01
  -0.440  0.8513E+00  0.2854E+01
  -0.430  0.8386E+00  0.2862E+01
  -0.420  0.8266E+00  0.2870E+01
  -0.410  0.8152E+00  0.2879E+01
  -0.400  0.8043E+00  0.2887E+01
  -0.390  0.7940E+00  0.2895E+01
  -0.380  0.7843E+00  0.2903E+01
  -0.370  0.7748E+00  0.2910E+01
  -0.360  0.7653E+00  0.2918E+01
  -0.350  0.7567E+00  0.2926E+01
  -0.340  0.7484E+00  0.2933E+01
  -0.330  0.7402E+00  0.2941E+01
  -0.320  0.7321E+00  0.2948E+01
  -0.310  0.7242E+00  0.2955E+01
  -0.300  0.7165E+00  0.2962E+01
  -0.290  0.7089E+00  0.2970E+01
  -0.280  0.7014E+00  0.2977E+01
  -0.270  0.6939E+00  0.2984E+01
  -0.260  0.6867E+00  0.2991E+01
  -0.250  0.6795E+00  0.2997E+01
  -0.240  0.6725E+00  0.3004E+01
  -0.230  0.6656E+00  0.3011E+01
  -0.220  0.6589E+00  0.3017E+01
  -0.210  0.6523E+00  0.3024E+01
  -0.200  0.6458E+00  0.3030E+01
  -0.190  0.6395E+00  0.3037E+01
  -0.180  0.6333E+00  0.3043E+01
  -0.170  0.6272E+00  0.3050E+01
  -0.160  0.6213E+00  0.3056E+01
  -0.150  0.6155E+00  0.3062E+01
  -0.140  0.6098E+00  0.3068E+01
  -0.130  0.6042E+00  0.3074E+01
  -0.120  0.5988E+00  0.3080E+01
  -0.110  0.5936E+00  0.3086E+01
  -0.100  0.5879E+00  0.3092E+01
  -0.090  0.5828E+00  0.3098E+01
  -0.080  0.5784E+00  0.3104E+01
  -0.070  0.5741E+00  0.3109E+01
  -0.060  0.5700E+00  0.3115E+01
  -0.050  0.5659E+00  0.3121E+01
  -0.040  0.5618E+00  0.3127E+01
  -0.030  0.5578E+00  0.3132E+01
  -0.020  0.5538E+00  0.3138E+01
  -0.010  0.5498E+00  0.3143E+01
   0.000  0.5459E+00  0.3149E+01
   0.010  0.5420E+00  0.3154E+01
   0.020  0.5381E+00  0.3160E+01
   0.030  0.5343E+00  0.3165E+01
   0.040  0.5305E+00  0.3170E+01
   0.050  0.5267E+00  0.3175E+01
   0.060  0.5230E+00  0.3181E+01
   0.070  0.5193E+00  0.3186E+01
   0.080  0.5156E+00  0.3191E+01
   0.090  0.5120E+00  0.3196E+01
   0.100  0.5083E+00  0.3201E+01
   0.110  0.5048E+00  0.3206E+01
   0.120  0.5012E+00  0.3211E+01
   0.130  0.4977E+00  0.3216E+01
   0.140  0.4942E+00  0.3221E+01
   0.150  0.4907E+00  0.3226E+01
   0.160  0.4873E+00  0.3231E+01
   0.170  0.4839E+00  0.3236E+01
   0.180  0.4805E+00  0.3241E+01
   0.190  0.4772E+00  0.3246E+01
   0.200  0.4739E+00  0.3250E+01
   0.210  0.4706E+00  0.3255E+01
   0.220  0.4674E+00  0.3260E+01
   0.230  0.4642E+00  0.3265E+01
   0.240  0.4610E+00  0.3269E+01
   0.250  0.4578E+00  0.3274E+01
   0.260  0.4576E+00  0.3278E+01
   0.270  0.4545E+00  0.3283E+01
   0.280  0.4519E+00  0.3287E+01
   0.290  0.4493E+00  0.3292E+01
   0.300  0.4466E+00  0.3296E+01
   0.310  0.4439E+00  0.3301E+01
   0.320  0.4413E+00  0.3305E+01
   0.330  0.4386E+00  0.3310E+01
   0.340  0.4359E+00  0.3314E+01
   0.350  0.4331E+00  0.3318E+01
   0.360  0.4304E+00  0.3323E+01
   0.370  0.4277E+00  0.3327E+01
   0.380  0.4249E+00  0.3331E+01
   0.390  0.4222E+00  0.3335E+01
   0.400  0.4194E+00  0.3340E+01
   0.410  0.4166E+00  0.3344E+01
   0.420  0.4138E+00  0.3348E+01
   0.430  0.4110E+00  0.3352E+01
   0.440  0.4082E+00  0.3356E+01
   0.450  0.4055E+00  0.3360E+01
   0.460  0.4028E+00  0.3364E+01
   0.470  0.4001E+00  0.3368E+01
   0.480  0.3975E+00  0.3372E+01
   0.490  0.3949E+00  0.3376E+01
   0.500  0.3923E+00  0.3380E+01
   0.510  0.3897E+00  0.3384E+01
   0.520  0.3872E+00  0.3388E+01
   0.530  0.3847E+00  0.3392E+01
   0.540  0.3822E+00  0.3396E+01
   0.550  0.3797E+00  0.3400E+01
   0.560  0.3773E+00  0.3403E+01
   0.570  0.3749E+00  0.3407E+01
   0.580  0.3725E+00  0.3411E+01
   0.590  0.3702E+00  0.3415E+01
   0.600  0.3679E+00  0.3418E+01
   0.610  0.3656E+00  0.3422E+01
   0.620  0.3634E+00  0.3426E+01
   0.630  0.3611E+00  0.3429E+01
   0.640  0.3589E+00  0.3433E+01
   0.650  0.3568E+00  0.3436E+01
   0.660  0.3546E+00  0.3440E+01
   0.670  0.3525E+00  0.3443E+01
   0.680  0.3504E+00  0.3447E+01
   0.690  0.3483E+00  0.3450E+01
   0.700  0.3462E+00  0.3454E+01
   0.710  0.3441E+00  0.3457E+01
   0.720  0.3420E+00  0.3461E+01
   0.730  0.3399E+00  0.3464E+01
   0.740  0.3379E+00  0.3468E+01
   0.750  0.3359E+00  0.3471E+01
   0.760  0.3339E+00  0.3474E+01
   0.770  0.3319E+00  0.3478E+01
   0.780  0.3300E+00  0.3481E+01
   0.790  0.3281E+00  0.3484E+01
   0.800  0.3262E+00  0.3488E+01
   0.810  0.3243E+00  0.3491E+01
   0.820  0.3225E+00  0.3494E+01
   0.830  0.3206E+00  0.3497E+01
   0.840  0.3188E+00  0.3500E+01
   0.850  0.3171E+00  0.3504E+01
   0.860  0.3153E+00  0.3507E+01
   0.870  0.3136E+00  0.3510E+01
   0.880  0.3119E+00  0.3513E+01
   0.890  0.3102E+00  0.3516E+01
   0.900  0.3085E+00  0.3519E+01
   0.910  0.3069E+00  0.3522E+01
   0.920  0.3053E+00  0.3525E+01
   0.930  0.3038E+00  0.3528E+01
   0.940  0.3024E+00  0.3531E+01
   0.950  0.3010E+00  0.3534E+01
   0.960  0.2996E+00  0.3537E+01
   0.970  0.2981E+00  0.3540E+01
   0.980  0.2967E+00  0.3543E+01
   0.990  0.2953E+00  0.3546E+01
   1.000  0.2938E+00  0.3549E+01
   1.010  0.2924E+00  0.3552E+01
   1.020  0.2909E+00  0.3555E+01
   1.030  0.2895E+00  0.3558E+01
   1.040  0.2880E+00  0.3561E+01
   1.050  0.2868E+00  0.3564E+01
   1.060  0.2857E+00  0.3567E+01
   1.070  0.2846E+00  0.3570E+01
   1.080  0.2834E+00  0.3572E+01
   1.090  0.2822E+00  0.3575E+01
   1.100  0.2810E+00  0.3578E+01
   1.110  0.2797E+00  0.3581E+01
   1.120  0.2784E+00  0.3584E+01
   1.130  0.2770E+00  0.3586E+01
   1.140  0.2756E+00  0.3589E+01
   1.150  0.2742E+00  0.3592E+01
   1.160  0.2727E+00  0.3595E+01
   1.170  0.2712E+00  0.3597E+01
   1.180  0.2697E+00  0.3600E+01
   1.190  0.2681E+00  0.3603E+01
   1.200  0.2664E+00  0.3605E+01
   1.210  0.2646E+00  0.3608E+01
   1.220  0.2628E+00  0.3611E+01
   1.230  0.2610E+00  0.3613E+01
   1.240  0.2593E+00  0.3616E+01
   1.250  0.2575E+00  0.3619E+01
   1.260  0.2558E+00  0.3621E+01
   1.270  0.2541E+00  0.3624E+01
   1.280  0.2524E+00  0.3626E+01
   1.290  0.2508E+00  0.3629E+01
   1.300  0.2491E+00  0.3631E+01
   1.310  0.2474E+00  0.3634E+01
   1.320  0.2458E+00  0.3636E+01
   1.330  0.2442E+00  0.3639E+01
   1.340  0.2426E+00  0.3641E+01
   1.350  0.2410E+00  0.3643E+01
   1.360  0.2395E+00  0.3646E+01
   1.370  0.2379E+00  0.3648E+01
   1.380  0.2364E+00  0.3651E+01
   1.390  0.2349E+00  0.3653E+01
   1.400  0.2334E+00  0.3655E+01
   1.410  0.2319E+00  0.3658E+01
   1.420  0.2304E+00  0.3660E+01
   1.430  0.2290E+00  0.3662E+01
   1.440  0.2272E+00  0.3665E+01
   1.450  0.2258E+00  0.3667E+01
   1.460  0.2247E+00  0.3669E+01
   1.470  0.2235E+00  0.3671E+01
   1.480  0.2224E+00  0.3674E+01
   1.490  0.2212E+00  0.3676E+01
   1.500  0.2201E+00  0.3678E+01
   1.510  0.2190E+00  0.3680E+01
   1.520  0.2179E+00  0.3682E+01
   1.530  0.2167E+00  0.3685E+01
   1.540  0.2156E+00  0.3687E+01
   1.550  0.2145E+00  0.3689E+01
   1.560  0.2134E+00  0.3691E+01
   1.570  0.2123E+00  0.3693E+01
   1.580  0.2112E+00  0.3695E+01
   1.590  0.2102E+00  0.3697E+01
   1.600  0.2108E+00  0.3699E+01
   1.610  0.2131E+00  0.3702E+01
   1.620  0.2172E+00  0.3704E+01
   1.630  0.2231E+00  0.3706E+01
   1.640  0.2308E+00  0.3708E+01
   1.650  0.2403E+00  0.3711E+01
   1.660  0.2515E+00  0.3713E+01
   1.670  0.2646E+00  0.3716E+01
   1.680  0.2794E+00  0.3718E+01
   1.690  0.2960E+00  0.3721E+01
   1.700  0.3144E+00  0.3724E+01
   1.710  0.3345E+00  0.3727E+01
   1.720  0.3565E+00  0.3731E+01
   1.730  0.3802E+00  0.3735E+01
   1.740  0.4057E+00  0.3739E+01
   1.750  0.6078E+00  0.3744E+01
   1.760  0.6892E+00  0.3750E+01
   1.770  0.7516E+00  0.3757E+01
   1.780  0.7969E+00  0.3765E+01
   1.790  0.8575E+00  0.3773E+01
   1.800  0.9146E+00  0.3782E+01
   1.810  0.9686E+00  0.3792E+01
   1.820  0.1019E+01  0.3802E+01
   1.830  0.1067E+01  0.3812E+01
   1.840  0.1106E+01  0.3823E+01
   1.850  0.1142E+01  0.3834E+01
   1.860  0.1177E+01  0.3846E+01
   1.870  0.1211E+01  0.3858E+01
   1.880  0.1244E+01  0.3870E+01
   1.890  0.1276E+01  0.3882E+01
   1.900  0.1307E+01  0.3895E+01
   1.910  0.1318E+01  0.3909E+01
   1.920  0.1327E+01  0.3922E+01
   1.930  0.1332E+01  0.3935E+01
   1.940  0.1336E+01  0.3948E+01
   1.950  0.1337E+01  0.3962E+01
   1.960  0.1332E+01  0.3975E+01
   1.970  0.1324E+01  0.3988E+01
   1.980  0.1315E+01  0.4002E+01
   1.990  0.1306E+01  0.4015E+01
   2.000  0.1295E+01  0.4028E+01
   2.010  0.1284E+01  0.4041E+01
   2.020  0.1272E+01  0.4053E+01
   2.030  0.1260E+01  0.4066E+01
   2.040  0.1248E+01  0.4079E+01
   2.050  0.1237E+01  0.4091E+01
   2.060  0.1229E+01  0.4103E+01
   2.070  0.1223E+01  0.4116E+01
   2.080  0.1218E+01  0.4128E+01
   2.090  0.1213E+01  0.4140E+01
   2.100  0.1208E+01  0.4152E+01
   2.110  0.1203E+01  0.4164E+01
   2.120  0.1200E+01  0.4176E+01
   2.130  0.1196E+01  0.4188E+01
   2.140  0.1193E+01  0.4200E+01
   2.150  0.1189E+01  0.4212E+01
   2.160  0.1186E+01  0.4224E+01
   2.170  0.1184E+01  0.4236E+01
   2.180  0.1181E+01  0.4247E+01
   2.190  0.1179E+01  0.4259E+01
   2.200  0.1178E+01  0.4271E+01
   2.210  0.1198E+01  0.4283E+01
   2.220  0.1199E+01  0.4295E+01
   2.230  0.1180E+01  0.4307E+01
   2.240  0.1164E+01  0.4319E+01
   2.250  0.1149E+01  0.4330E+01
   2.260  0.1136E+01  0.4342E+01
   2.270  0.1125E+01  0.4353E+01
   2.280  0.1115E+01  0.4364E+01
   2.290  0.1107E+01  0.4375E+01
   2.300  0.1101E+01  0.4386E+01
   2.310  0.1096E+01  0.4397E+01
   2.320  0.1093E+01  0.4408E+01
   2.330  0.1091E+01  0.4419E+01
   2.340  0.1089E+01  0.4430E+01
   2.350  0.1087E+01  0.4441E+01
   2.360  0.1084E+01  0.4452E+01
   2.370  0.1084E+01  0.4463E+01
   2.380  0.1088E+01  0.4473E+01
   2.390  0.1092E+01  0.4484E+01
   2.400  0.1092E+01  0.4495E+01
   2.410  0.1086E+01  0.4506E+01
   2.420  0.1075E+01  0.4517E+01
   2.430  0.1058E+01  0.4528E+01
   2.440  0.1055E+01  0.4538E+01
   2.450  0.1054E+01  0.4549E+01
   2.460  0.1055E+01  0.4559E+01
   2.470  0.1057E+01  0.4570E+01
   2.480  0.1059E+01  0.4580E+01
   2.490  0.1062E+01  0.4591E+01
   2.500  0.1064E+01  0.4602E+01
   2.510  0.1066E+01  0.4612E+01
   2.520  0.1068E+01  0.4623E+01
   2.530  0.1069E+01  0.4634E+01
   2.540  0.1070E+01  0.4644E+01
   2.550  0.1072E+01  0.4655E+01
   2.560  0.1074E+01  0.4666E+01
   2.570  0.1076E+01  0.4676E+01
   2.580  0.1079E+01  0.4687E+01
   2.590  0.1083E+01  0.4698E+01
   2.600  0.1086E+01  0.4709E+01
   2.610  0.1090E+01  0.4720E+01
   2.620  0.1095E+01  0.4731E+01
   2.630  0.1100E+01  0.4742E+01
   2.640  0.1105E+01  0.4753E+01
   2.650  0.1110E+01  0.4764E+01
   2.660  0.1115E+01  0.4775E+01
   2.670  0.1120E+01  0.4786E+01
   2.680  0.1126E+01  0.4797E+01
   2.690  0.1131E+01  0.4809E+01
   2.700  0.1138E+01  0.4820E+01
   2.710  0.1144E+01  0.4831E+01
   2.720  0.1151E+01  0.4843E+01
   2.730  0.1158E+01  0.4854E+01
   2.740  0.1165E+01  0.4866E+01
   2.750  0.1172E+01  0.4878E+01
   2.760  0.1352E+01  0.4890E+01
   2.770  0.1296E+01  0.4904E+01
   2.780  0.1268E+01  0.4916E+01
   2.790  0.1266E+01  0.4929E+01
   2.800  0.1262E+01  0.4942E+01
   2.810  0.1263E+01  0.4954E+01
   2.820  0.1271E+01  0.4967E+01
   2.830  0.1279E+01  0.4980E+01
   2.840  0.1286E+01  0.4992E+01
   2.850  0.1293E+01  0.5005E+01
   2.860  0.1301E+01  0.5018E+01
   2.870  0.1312E+01  0.5031E+01
   2.880  0.1323E+01  0.5045E+01
   2.890  0.1333E+01  0.5058E+01
   2.900  0.1344E+01  0.5071E+01
   2.910  0.1356E+01  0.5085E+01
   2.920  0.1367E+01  0.5098E+01
   2.930  0.1379E+01  0.5112E+01
   2.940  0.1391E+01  0.5126E+01
   2.950  0.1403E+01  0.5140E+01
   2.960  0.1419E+01  0.5154E+01
   2.970  0.1438E+01  0.5168E+01
   2.980  0.1459E+01  0.5183E+01
   2.990  0.1482E+01  0.5197E+01
   3.000  0.1504E+01  0.5212E+01
   3.010  0.1524E+01  0.5228E+01
   3.020  0.1556E+01  0.5243E+01
   3.030  0.1595E+01  0.5259E+01
   3.040  0.1629E+01  0.5275E+01
   3.050  0.1655E+01  0.5291E+01
   3.060  0.1661E+01  0.5308E+01
   3.070  0.1653E+01  0.5324E+01
   3.080  0.1641E+01  0.5341E+01
   3.090  0.1646E+01  0.5357E+01
   3.100  0.1649E+01  0.5374E+01
   3.110  0.1650E+01  0.5390E+01
   3.120  0.1648E+01  0.5407E+01
   3.130  0.1635E+01  0.5423E+01
   3.140  0.1607E+01  0.5439E+01
   3.150  0.1588E+01  0.5455E+01
   3.160  0.1579E+01  0.5471E+01
   3.170  0.1576E+01  0.5487E+01
   3.180  0.1574E+01  0.5503E+01
   3.190  0.1572E+01  0.5518E+01
   3.200  0.1572E+01  0.5534E+01
   3.210  0.1572E+01  0.5550E+01
   3.220  0.1573E+01  0.5566E+01
   3.230  0.1574E+01  0.5581E+01
   3.240  0.1577E+01  0.5597E+01
   3.250  0.1580E+01  0.5613E+01
   3.260  0.1582E+01  0.5629E+01
   3.270  0.1585E+01  0.5645E+01
   3.280  0.1597E+01  0.5660E+01
   3.290  0.1645E+01  0.5677E+01
   3.300  0.1634E+01  0.5693E+01
   3.310  0.1622E+01  0.5709E+01
   3.320  0.1611E+01  0.5726E+01
   3.330  0.1605E+01  0.5742E+01
   3.340  0.1601E+01  0.5758E+01
   3.350  0.1592E+01  0.5774E+01
   3.360  0.1583E+01  0.5790E+01
   3.370  0.1575E+01  0.5805E+01
   3.380  0.1568E+01  0.5821E+01
   3.390  0.1560E+01  0.5837E+01
   3.400  0.1554E+01  0.5852E+01
   3.410  0.1548E+01  0.5868E+01
   3.420  0.1542E+01  0.5883E+01
   3.430  0.1537E+01  0.5899E+01
   3.440  0.1533E+01  0.5914E+01
   3.450  0.1518E+01  0.5929E+01
   3.460  0.1514E+01  0.5944E+01
   3.470  0.1510E+01  0.5960E+01
   3.480  0.1507E+01  0.5975E+01
   3.490  0.1507E+01  0.5990E+01
   3.500  0.1510E+01  0.6005E+01
   3.510  0.1514E+01  0.6020E+01
   3.520  0.1520E+01  0.6035E+01
   3.530  0.1527E+01  0.6050E+01
   3.540  0.1537E+01  0.6066E+01
   3.550  0.1537E+01  0.6081E+01
   3.560  0.1517E+01  0.6096E+01
   3.570  0.1488E+01  0.6111E+01
   3.580  0.1483E+01  0.6126E+01
   3.590  0.1478E+01  0.6141E+01
   3.600  0.1473E+01  0.6156E+01
   3.610  0.1468E+01  0.6170E+01
   3.620  0.1463E+01  0.6185E+01
   3.630  0.1458E+01  0.6200E+01
   3.640  0.1453E+01  0.6214E+01
   3.650  0.1448E+01  0.6229E+01
   3.660  0.1444E+01  0.6243E+01
   3.670  0.1440E+01  0.6258E+01
   3.680  0.1436E+01  0.6272E+01
   3.690  0.1434E+01  0.6286E+01
   3.700  0.1433E+01  0.6301E+01
   3.710  0.1433E+01  0.6315E+01
   3.720  0.1435E+01  0.6329E+01
   3.730  0.1438E+01  0.6344E+01
   3.740  0.1443E+01  0.6358E+01
   3.750  0.1465E+01  0.6373E+01
   3.760  0.1453E+01  0.6387E+01
   3.770  0.1445E+01  0.6402E+01
   3.780  0.1439E+01  0.6416E+01
   3.790  0.1433E+01  0.6431E+01
   3.800  0.1427E+01  0.6445E+01
   3.810  0.1423E+01  0.6459E+01
   3.820  0.1419E+01  0.6473E+01
   3.830  0.1416E+01  0.6487E+01
   3.840  0.1414E+01  0.6502E+01
   3.850  0.1412E+01  0.6516E+01
   3.860  0.1411E+01  0.6530E+01
   3.870  0.1410E+01  0.6544E+01
   3.880  0.1409E+01  0.6558E+01
   3.890  0.1409E+01  0.6572E+01
   3.900  0.1408E+01  0.6586E+01
   3.910  0.1405E+01  0.6600E+01
   3.920  0.1403E+01  0.6614E+01
   3.930  0.1400E+01  0.6628E+01
   3.940  0.1397E+01  0.6642E+01
   3.950  0.1394E+01  0.6656E+01
   3.960  0.1391E+01  0.6670E+01
   3.970  0.1387E+01  0.6684E+01
   3.980  0.1392E+01  0.6698E+01
   3.990  0.1423E+01  0.6712E+01
   4.000  0.1444E+01  0.6726E+01
   4.010  0.1454E+01  0.6741E+01
   4.020  0.1452E+01  0.6755E+01
   4.030  0.1445E+01  0.6770E+01
   4.040  0.1433E+01  0.6784E+01
   4.050  0.1417E+01  0.6799E+01
   4.060  0.1396E+01  0.6813E+01
   4.070  0.1377E+01  0.6827E+01
   4.080  0.1372E+01  0.6840E+01
   4.090  0.1368E+01  0.6854E+01
   4.100  0.1363E+01  0.6868E+01
   4.110  0.1358E+01  0.6881E+01
   4.120  0.1354E+01  0.6895E+01
   4.130  0.1350E+01  0.6908E+01
   4.140  0.1346E+01  0.6922E+01
   4.150  0.1342E+01  0.6935E+01
   4.160  0.1338E+01  0.6949E+01
   4.170  0.1335E+01  0.6962E+01
   4.180  0.1331E+01  0.6975E+01
   4.190  0.1328E+01  0.6989E+01
   4.200  0.1325E+01  0.7002E+01
   4.210  0.1324E+01  0.7015E+01
   4.220  0.1347E+01  0.7028E+01
   4.230  0.1362E+01  0.7042E+01
   4.240  0.1376E+01  0.7056E+01
   4.250  0.1386E+01  0.7070E+01
   4.260  0.1386E+01  0.7083E+01
   4.270  0.1379E+01  0.7097E+01
   4.280  0.1372E+01  0.7111E+01
   4.290  0.1362E+01  0.7125E+01
   4.300  0.1350E+01  0.7138E+01
   4.310  0.1333E+01  0.7152E+01
   4.320  0.1326E+01  0.7165E+01
   4.330  0.1319E+01  0.7178E+01
   4.340  0.1314E+01  0.7191E+01
   4.350  0.1308E+01  0.7204E+01
   4.360  0.1302E+01  0.7217E+01
   4.370  0.1297E+01  0.7230E+01
   4.380  0.1290E+01  0.7243E+01
   4.390  0.1284E+01  0.7256E+01
   4.400  0.1278E+01  0.7269E+01
   4.410  0.1271E+01  0.7282E+01
   4.420  0.1264E+01  0.7295E+01
   4.430  0.1257E+01  0.7307E+01
   4.440  0.1253E+01  0.7320E+01
   4.450  0.1261E+01  0.7332E+01
   4.460  0.1273E+01  0.7345E+01
   4.470  0.1276E+01  0.7358E+01
   4.480  0.1272E+01  0.7370E+01
   4.490  0.1266E+01  0.7383E+01
   4.500  0.1258E+01  0.7396E+01
   4.510  0.1248E+01  0.7408E+01
   4.520  0.1236E+01  0.7421E+01
   4.530  0.1223E+01  0.7433E+01
   4.540  0.1221E+01  0.7445E+01
   4.550  0.1214E+01  0.7457E+01
   4.560  0.1193E+01  0.7469E+01
   4.570  0.1170E+01  0.7481E+01
   4.580  0.1144E+01  0.7493E+01
   4.590  0.1118E+01  0.7504E+01
   4.600  0.1089E+01  0.7515E+01
   4.610  0.1057E+01  0.7526E+01
   4.620  0.1024E+01  0.7536E+01
   4.630  0.9905E+00  0.7546E+01
   4.640  0.9584E+00  0.7556E+01
   4.650  0.9299E+00  0.7566E+01
   4.660  0.9049E+00  0.7575E+01
   4.670  0.8835E+00  0.7584E+01
   4.680  0.8656E+00  0.7592E+01
   4.690  0.8494E+00  0.7601E+01
   4.700  0.8335E+00  0.7609E+01
   4.710  0.8178E+00  0.7618E+01
   4.720  0.8025E+00  0.7626E+01
   4.730  0.7874E+00  0.7634E+01
   4.740  0.7728E+00  0.7641E+01
   4.750  0.7586E+00  0.7649E+01
   4.760  0.7448E+00  0.7657E+01
   4.770  0.7313E+00  0.7664E+01
   4.780  0.7182E+00  0.7671E+01
   4.790  0.7054E+00  0.7678E+01
   4.800  0.6930E+00  0.7685E+01
   4.810  0.6810E+00  0.7692E+01
   4.820  0.6693E+00  0.7699E+01
   4.830  0.6426E+00  0.7706E+01
   4.840  0.6344E+00  0.7712E+01
   4.850  0.6326E+00  0.7718E+01
   4.860  0.6320E+00  0.7725E+01
   4.870  0.6309E+00  0.7731E+01
   4.880  0.6291E+00  0.7737E+01
   4.890  0.6269E+00  0.7744E+01
   4.900  0.6178E+00  0.7750E+01
   4.910  0.6087E+00  0.7756E+01
   4.920  0.5998E+00  0.7762E+01
   4.930  0.5908E+00  0.7768E+01
   4.940  0.5820E+00  0.7774E+01
   4.950  0.5768E+00  0.7780E+01
   4.960  0.5717E+00  0.7785E+01
   4.970  0.5659E+00  0.7791E+01
   4.980  0.5772E+00  0.7797E+01
   4.990  0.5847E+00  0.7802E+01
   5.000  0.5826E+00  0.7808E+01
   5.010  0.5709E+00  0.7814E+01
   5.020  0.5498E+00  0.7820E+01
   5.030  0.5190E+00  0.7825E+01
   5.040  0.4970E+00  0.7830E+01
   5.050  0.4847E+00  0.7835E+01
   5.060  0.4717E+00  0.7840E+01
   5.070  0.4577E+00  0.7844E+01
   5.080  0.4437E+00  0.7849E+01
   5.090  0.4336E+00  0.7853E+01
   5.100  0.4231E+00  0.7858E+01
   5.110  0.4148E+00  0.7862E+01
   5.120  0.4086E+00  0.7866E+01
   5.130  0.4032E+00  0.7870E+01
   5.140  0.4004E+00  0.7874E+01
   5.150  0.3975E+00  0.7878E+01
   5.160  0.3945E+00  0.7882E+01
   5.170  0.3912E+00  0.7886E+01
   5.180  0.3878E+00  0.7890E+01
   5.190  0.3843E+00  0.7894E+01
   5.200  0.3805E+00  0.7897E+01
   5.210  0.3747E+00  0.7901E+01
   5.220  0.3679E+00  0.7905E+01
   5.230  0.3611E+00  0.7909E+01
   5.240  0.3541E+00  0.7912E+01
   5.250  0.3471E+00  0.7916E+01
   5.260  0.3401E+00  0.7919E+01
   5.270  0.3331E+00  0.7922E+01
   5.280  0.3259E+00  0.7926E+01
   5.290  0.3188E+00  0.7929E+01
   5.300  0.3116E+00  0.7932E+01
   5.310  0.3043E+00  0.7935E+01
   5.320  0.2971E+00  0.7938E+01
   5.330  0.2897E+00  0.7941E+01
   5.340  0.2824E+00  0.7944E+01
   5.350  0.2749E+00  0.7947E+01
   5.360  0.2675E+00  0.7950E+01
   5.370  0.2596E+00  0.7952E+01
   5.380  0.2513E+00  0.7955E+01
   5.390  0.2423E+00  0.7957E+01
   5.400  0.2331E+00  0.7960E+01
   5.410  0.2237E+00  0.7962E+01
   5.420  0.2143E+00  0.7964E+01
   5.430  0.2047E+00  0.7966E+01
   5.440  0.1950E+00  0.7968E+01
   5.450  0.1877E+00  0.7970E+01
   5.460  0.1821E+00  0.7972E+01
   5.470  0.1764E+00  0.7974E+01
   5.480  0.1707E+00  0.7975E+01
   5.490  0.1649E+00  0.7977E+01
   5.500  0.1591E+00  0.7979E+01
   5.510  0.1533E+00  0.7980E+01
   5.520  0.1474E+00  0.7982E+01
   5.530  0.1415E+00  0.7983E+01
   5.540  0.1355E+00  0.7985E+01
   5.550  0.1295E+00  0.7986E+01
   5.560  0.1234E+00  0.7987E+01
   5.570  0.1173E+00  0.7988E+01
   5.580  0.1112E+00  0.7990E+01
   5.590  0.1050E+00  0.7991E+01
   5.600  0.9874E-01  0.7992E+01
   5.610  0.9247E-01  0.7993E+01
   5.620  0.8615E-01  0.7994E+01
   5.630  0.7979E-01  0.7994E+01
   5.640  0.7339E-01  0.7995E+01
   5.650  0.6694E-01  0.7996E+01
   5.660  0.1298E+00  0.7997E+01
   5.670  0.7073E-01  0.7998E+01
   5.680  0.4364E-01  0.7998E+01
   5.690  0.3595E-01  0.7999E+01
   5.700  0.2900E-01  0.7999E+01
   5.710  0.2279E-01  0.7999E+01
   5.720  0.1733E-01  0.8000E+01
   5.730  0.1262E-01  0.8000E+01
   5.740  0.8655E-02  0.8000E+01
   5.750  0.5434E-02  0.8000E+01
   5.760  0.2960E-02  0.8000E+01
   5.770  0.1231E-02  0.8000E+01
   5.780  0.2489E-03  0.8000E+01
   5.790  0.0000E+00  0.8000E+01
   5.800  0.0000E+00  0.8000E+01
   5.810  0.0000E+00  0.8000E+01
   5.820  0.0000E+00  0.8000E+01
   5.830  0.0000E+00  0.8000E+01
   5.840  0.0000E+00  0.8000E+01
   5.850  0.0000E+00  0.8000E+01
   5.860  0.0000E+00  0.8000E+01
   5.870  0.0000E+00  0.8000E+01
   5.880  0.0000E+00  0.8000E+01
   5.890  0.0000E+00  0.8000E+01
   5.900  0.0000E+00  0.8000E+01
   5.910  0.0000E+00  0.8000E+01
   5.920  0.0000E+00  0.8000E+01
   5.930  0.0000E+00  0.8000E+01
   5.940  0.0000E+00  0.8000E+01
   5.950  0.0000E+00  0.8000E+01
   5.960  0.0000E+00  0.8000E+01
   5.970  0.0000E+00  0.8000E+01
   5.980  0.0000E+00  0.8000E+01
   5.990  0.0000E+00  0.8000E+01
   6.000  0.0000E+00  0.8000E+01
   6.010  0.0000E+00  0.8000E+01
   6.020  0.0000E+00  0.8000E+01
   6.030  0.0000E+00  0.8000E+01
   6.040  0.0000E+00  0.8000E+01
   6.050  0.0000E+00  0.8000E+01
   6.060  0.0000E+00  0.8000E+01
   6.070  0.0000E+00  0.8000E+01
   6.080  0.0000E+00  0.8000E+01
   6.090  0.0000E+00  0.8000E+01
   6.100  0.0000E+00  0.8000E+01
   6.110  0.0000E+00  0.8000E+01
   6.120  0.0000E+00  0.8000E+01
   6.130  0.0000E+00  0.8000E+01
   6.140  0.0000E+00  0.8000E+01
   6.150  0.0000E+00  0.8000E+01
   6.160  0.0000E+00  0.8000E+01
   6.170  0.0000E+00  0.8000E+01
   6.180  0.0000E+00  0.8000E+01
   6.190  0.0000E+00  0.8000E+01
   6.200  0.0000E+00  0.8000E+01
   6.210  0.0000E+00  0.8000E+01
   6.220  0.0000E+00  0.8000E+01
   6.230  0.0000E+00  0.8000E+01
   6.240  0.0000E+00  0.8000E+01
   6.250  0.0000E+00  0.8000E+01
   6.260  0.0000E+00  0.8000E+01
   6.270  0.0000E+00  0.8000E+01
   6.280  0.0000E+00  0.8000E+01
   6.290  0.0000E+00  0.8000E+01
   6.300  0.0000E+00  0.8000E+01
   6.310  0.0000E+00  0.8000E+01
   6.320  0.0000E+00  0.8000E+01
   6.330  0.0000E+00  0.8000E+01
   6.340  0.0000E+00  0.8000E+01
   6.350  0.0000E+00  0.8000E+01
   6.360  0.0000E+00  0.8000E+01
   6.370  0.0000E+00  0.8000E+01
   6.380  0.0000E+00  0.8000E+01
   6.390  0.0000E+00  0.8000E+01
   6.400  0.0000E+00  0.8000E+01
   6.410  0.0000E+00  0.8000E+01
   6.420  0.0000E+00  0.8000E+01
   6.430  0.0000E+00  0.8000E+01
   6.440  0.0000E+00  0.8000E+01
   6.450  0.0000E+00  0.8000E+01
   6.460  0.1431E-04  0.8000E+01
   6.470  0.3748E-03  0.8000E+01
   6.480  0.1221E-02  0.8000E+01
   6.490  0.2552E-02  0.8000E+01
   6.500  0.4368E-02  0.8000E+01
   6.510  0.6670E-02  0.8000E+01
   6.520  0.9457E-02  0.8000E+01
   6.530  0.1273E-01  0.8000E+01
   6.540  0.1649E-01  0.8000E+01
   6.550  0.2073E-01  0.8001E+01
   6.560  0.2546E-01  0.8001E+01
   6.570  0.3067E-01  0.8001E+01
   6.580  0.3637E-01  0.8001E+01
   6.590  0.4256E-01  0.8002E+01
   6.600  0.4923E-01  0.8002E+01
   6.610  0.5710E-01  0.8003E+01
   6.620  0.6762E-01  0.8003E+01
   6.630  0.8083E-01  0.8004E+01
   6.640  0.9674E-01  0.8005E+01
   6.650  0.1153E+00  0.8006E+01
   6.660  0.1349E+00  0.8007E+01
   6.670  0.1405E+00  0.8009E+01
   6.680  0.1464E+00  0.8010E+01
   6.690  0.1526E+00  0.8012E+01
   6.700  0.1592E+00  0.8013E+01
   6.710  0.1662E+00  0.8015E+01
   6.720  0.1735E+00  0.8017E+01
   6.730  0.1811E+00  0.8018E+01
   6.740  0.1891E+00  0.8020E+01
   6.750  0.1974E+00  0.8022E+01
   6.760  0.2054E+00  0.8024E+01
   6.770  0.2108E+00  0.8026E+01
   6.780  0.2164E+00  0.8028E+01
   6.790  0.2221E+00  0.8031E+01
   6.800  0.2280E+00  0.8033E+01
   6.810  0.2341E+00  0.8035E+01
   6.820  0.2404E+00  0.8038E+01
   6.830  0.2467E+00  0.8040E+01
   6.840  0.2530E+00  0.8042E+01
   6.850  0.2594E+00  0.8045E+01
   6.860  0.2659E+00  0.8048E+01
   6.870  0.2724E+00  0.8050E+01
   6.880  0.2790E+00  0.8053E+01
   6.890  0.2856E+00  0.8056E+01
   6.900  0.2922E+00  0.8059E+01
   6.910  0.2989E+00  0.8062E+01
   6.920  0.3057E+00  0.8065E+01
   6.930  0.3125E+00  0.8068E+01
   6.940  0.3194E+00  0.8071E+01
   6.950  0.3263E+00  0.8074E+01
   6.960  0.3332E+00  0.8078E+01
   6.970  0.3400E+00  0.8081E+01
   6.980  0.3469E+00  0.8084E+01
   6.990  0.3544E+00  0.8088E+01
   7.000  0.3627E+00  0.8091E+01
   7.010  0.3719E+00  0.8095E+01
   7.020  0.3819E+00  0.8099E+01
   7.030  0.3927E+00  0.8103E+01
   7.040  0.4044E+00  0.8107E+01
   7.050  0.4169E+00  0.8111E+01
   7.060  0.4299E+00  0.8115E+01
   7.070  0.4365E+00  0.8119E+01
   7.080  0.4440E+00  0.8124E+01
   7.090  0.4525E+00  0.8128E+01
   7.100  0.4619E+00  0.8133E+01
   7.110  0.4723E+00  0.8138E+01
   7.120  0.4833E+00  0.8142E+01
   7.130  0.4951E+00  0.8147E+01
   7.140  0.5079E+00  0.8152E+01
   7.150  0.5215E+00  0.8157E+01
   7.160  0.5360E+00  0.8163E+01
   7.170  0.5513E+00  0.8168E+01
   7.180  0.5676E+00  0.8174E+01
   7.190  0.6522E+00  0.8180E+01
   7.200  0.6674E+00  0.8186E+01
   7.210  0.5458E+00  0.8192E+01
   7.220  0.5507E+00  0.8198E+01
   7.230  0.5554E+00  0.8203E+01
   7.240  0.5612E+00  0.8209E+01
   7.250  0.5672E+00  0.8215E+01
   7.260  0.5733E+00  0.8220E+01
   7.270  0.5795E+00  0.8226E+01
   7.280  0.5857E+00  0.8232E+01
   7.290  0.5921E+00  0.8238E+01
   7.300  0.5986E+00  0.8244E+01
   7.310  0.6053E+00  0.8250E+01
   7.320  0.6121E+00  0.8256E+01
   7.330  0.6191E+00  0.8262E+01
   7.340  0.6262E+00  0.8268E+01
   7.350  0.6334E+00  0.8275E+01
   7.360  0.6408E+00  0.8281E+01
   7.370  0.6483E+00  0.8287E+01
   7.380  0.6559E+00  0.8294E+01
   7.390  0.6637E+00  0.8300E+01
   7.400  0.6717E+00  0.8307E+01
   7.410  0.6800E+00  0.8314E+01
   7.420  0.6885E+00  0.8321E+01
   7.430  0.6972E+00  0.8328E+01
   7.440  0.7060E+00  0.8335E+01
   7.450  0.7150E+00  0.8342E+01
   7.460  0.7241E+00  0.8349E+01
   7.470  0.7334E+00  0.8356E+01
   7.480  0.7429E+00  0.8364E+01
   7.490  0.7525E+00  0.8371E+01
   7.500  0.7622E+00  0.8379E+01
   7.510  0.7722E+00  0.8386E+01
   7.520  0.7823E+00  0.8394E+01
   7.530  0.7996E+00  0.8402E+01
   7.540  0.8533E+00  0.8410E+01
   7.550  0.8750E+00  0.8419E+01
   7.560  0.8802E+00  0.8428E+01
   7.570  0.8844E+00  0.8437E+01
   7.580  0.8877E+00  0.8445E+01
   7.590  0.8905E+00  0.8454E+01
   7.600  0.8942E+00  0.8463E+01
   7.610  0.9012E+00  0.8472E+01
   7.620  0.9153E+00  0.8481E+01
   7.630  0.9294E+00  0.8491E+01
   7.640  0.9437E+00  0.8500E+01
   7.650  0.9580E+00  0.8509E+01
   7.660  0.9725E+00  0.8519E+01
   7.670  0.9870E+00  0.8529E+01
   7.680  0.1002E+01  0.8539E+01
   7.690  0.1016E+01  0.8549E+01
   7.700  0.1031E+01  0.8559E+01
   7.710  0.1046E+01  0.8569E+01
   7.720  0.1062E+01  0.8580E+01
   7.730  0.1076E+01  0.8591E+01
   7.740  0.1092E+01  0.8602E+01
   7.750  0.1283E+01  0.8613E+01
   7.760  0.1397E+01  0.8627E+01
   7.770  0.1273E+01  0.8640E+01
   7.780  0.1309E+01  0.8653E+01
   7.790  0.1347E+01  0.8666E+01
   7.800  0.1387E+01  0.8680E+01
   7.810  0.1429E+01  0.8694E+01
   7.820  0.1474E+01  0.8708E+01
   7.830  0.1526E+01  0.8723E+01
   7.840  0.1571E+01  0.8739E+01
   7.850  0.1586E+01  0.8755E+01
   7.860  0.1596E+01  0.8771E+01
   7.870  0.1606E+01  0.8787E+01
   7.880  0.1614E+01  0.8803E+01
   7.890  0.1621E+01  0.8819E+01
   7.900  0.1634E+01  0.8835E+01
   7.910  0.1653E+01  0.8852E+01
   7.920  0.1672E+01  0.8868E+01
   7.930  0.1689E+01  0.8885E+01
   7.940  0.1705E+01  0.8902E+01
   7.950  0.1720E+01  0.8919E+01
   7.960  0.1733E+01  0.8936E+01
   7.970  0.1747E+01  0.8954E+01
   7.980  0.1761E+01  0.8971E+01
   7.990  0.1774E+01  0.8989E+01
   8.000  0.1786E+01  0.9007E+01
   8.010  0.1802E+01  0.9025E+01
   8.020  0.1819E+01  0.9043E+01
   8.030  0.1836E+01  0.9061E+01
   8.040  0.1854E+01  0.9080E+01
   8.050  0.1882E+01  0.9098E+01
   8.060  0.1924E+01  0.9117E+01
   8.070  0.1980E+01  0.9137E+01
   8.080  0.2049E+01  0.9157E+01
   8.090  0.2144E+01  0.9178E+01
   8.100  0.2195E+01  0.9200E+01
   8.110  0.2176E+01  0.9222E+01
   8.120  0.2159E+01  0.9243E+01
   8.130  0.2143E+01  0.9265E+01
   8.140  0.2146E+01  0.9286E+01
   8.150  0.2147E+01  0.9308E+01
   8.160  0.2146E+01  0.9329E+01
   8.170  0.2144E+01  0.9351E+01
   8.180  0.2137E+01  0.9372E+01
   8.190  0.2123E+01  0.9393E+01
   8.200  0.2109E+01  0.9414E+01
   8.210  0.2093E+01  0.9435E+01
   8.220  0.2074E+01  0.9456E+01
   8.230  0.2054E+01  0.9477E+01
   8.240  0.2032E+01  0.9497E+01
   8.250  0.2008E+01  0.9518E+01
   8.260  0.1982E+01  0.9537E+01
   8.270  0.1955E+01  0.9557E+01
   8.280  0.1925E+01  0.9577E+01
   8.290  0.1892E+01  0.9596E+01
   8.300  0.1847E+01  0.9614E+01
   8.310  0.1801E+01  0.9633E+01
   8.320  0.1755E+01  0.9650E+01
   8.330  0.1724E+01  0.9668E+01
   8.340  0.1688E+01  0.9685E+01
   8.350  0.1649E+01  0.9702E+01
   8.360  0.1609E+01  0.9718E+01
   8.370  0.1570E+01  0.9734E+01
   8.380  0.1532E+01  0.9749E+01
   8.390  0.1487E+01  0.9764E+01
   8.400  0.1448E+01  0.9779E+01
   8.410  0.1417E+01  0.9793E+01
   8.420  0.1392E+01  0.9807E+01
   8.430  0.1369E+01  0.9821E+01
   8.440  0.1347E+01  0.9835E+01
   8.450  0.1325E+01  0.9848E+01
   8.460  0.1300E+01  0.9861E+01
   8.470  0.1275E+01  0.9874E+01
   8.480  0.1250E+01  0.9887E+01
   8.490  0.1226E+01  0.9899E+01
   8.500  0.1204E+01  0.9911E+01
   8.510  0.1182E+01  0.9923E+01
   8.520  0.1161E+01  0.9935E+01
   8.530  0.1140E+01  0.9946E+01
   8.540  0.1120E+01  0.9958E+01
   8.550  0.1107E+01  0.9969E+01
   8.560  0.1094E+01  0.9980E+01
   8.570  0.1079E+01  0.9991E+01
   8.580  0.1062E+01  0.1000E+02
   8.590  0.1047E+01  0.1001E+02
   8.600  0.1031E+01  0.1002E+02
   8.610  0.1017E+01  0.1003E+02
   8.620  0.1004E+01  0.1004E+02
   8.630  0.9912E+00  0.1005E+02
   8.640  0.9787E+00  0.1006E+02
   8.650  0.9668E+00  0.1007E+02
   8.660  0.9553E+00  0.1008E+02
   8.670  0.9443E+00  0.1009E+02
   8.680  0.9339E+00  0.1010E+02
   8.690  0.9239E+00  0.1011E+02
   8.700  0.9144E+00  0.1012E+02
   8.710  0.9055E+00  0.1013E+02
   8.720  0.8970E+00  0.1014E+02
   8.730  0.8892E+00  0.1015E+02
   8.740  0.8848E+00  0.1016E+02
   8.750  0.8820E+00  0.1016E+02
   8.760  0.8796E+00  0.1017E+02
   8.770  0.8776E+00  0.1018E+02
   8.780  0.8761E+00  0.1019E+02
   8.790  0.8750E+00  0.1020E+02
   8.800  0.8742E+00  0.1021E+02
   8.810  0.8739E+00  0.1022E+02
   8.820  0.8735E+00  0.1023E+02
   8.830  0.8704E+00  0.1023E+02
   8.840  0.8679E+00  0.1024E+02
   8.850  0.8658E+00  0.1025E+02
   8.860  0.8643E+00  0.1026E+02
   8.870  0.8633E+00  0.1027E+02
   8.880  0.8629E+00  0.1028E+02
   8.890  0.8628E+00  0.1029E+02
   8.900  0.9229E+00  0.1029E+02
   8.910  0.9495E+00  0.1030E+02
   8.920  0.9905E+00  0.1031E+02
   8.930  0.1008E+01  0.1032E+02
   8.940  0.9845E+00  0.1033E+02
   8.950  0.9862E+00  0.1034E+02
   8.960  0.1004E+01  0.1035E+02
   8.970  0.1032E+01  0.1036E+02
   8.980  0.1065E+01  0.1037E+02
   8.990  0.1103E+01  0.1039E+02
   9.000  0.1145E+01  0.1040E+02
   9.010  0.1192E+01  0.1041E+02
   9.020  0.1247E+01  0.1042E+02
   9.030  0.1308E+01  0.1043E+02
   9.040  0.1377E+01  0.1045E+02
   9.050  0.1454E+01  0.1046E+02
   9.060  0.1590E+01  0.1048E+02
   9.070  0.1711E+01  0.1049E+02
   9.080  0.1790E+01  0.1051E+02
   9.090  0.1854E+01  0.1053E+02
   9.100  0.1913E+01  0.1055E+02
   9.110  0.1966E+01  0.1057E+02
   9.120  0.2018E+01  0.1059E+02
   9.130  0.2068E+01  0.1061E+02
   9.140  0.2114E+01  0.1063E+02
   9.150  0.2153E+01  0.1065E+02
   9.160  0.2189E+01  0.1067E+02
   9.170  0.2228E+01  0.1069E+02
   9.180  0.2268E+01  0.1072E+02
   9.190  0.2326E+01  0.1074E+02
   9.200  0.2263E+01  0.1076E+02
   9.210  0.2212E+01  0.1078E+02
   9.220  0.2172E+01  0.1081E+02
   9.230  0.2145E+01  0.1083E+02
   9.240  0.2119E+01  0.1085E+02
   9.250  0.2081E+01  0.1087E+02
   9.260  0.2050E+01  0.1089E+02
   9.270  0.2025E+01  0.1091E+02
   9.280  0.2001E+01  0.1093E+02
   9.290  0.1978E+01  0.1095E+02
   9.300  0.1957E+01  0.1097E+02
   9.310  0.1934E+01  0.1099E+02
   9.320  0.1913E+01  0.1101E+02
   9.330  0.1894E+01  0.1103E+02
   9.340  0.1885E+01  0.1105E+02
   9.350  0.1901E+01  0.1107E+02
   9.360  0.1918E+01  0.1108E+02
   9.370  0.1938E+01  0.1110E+02
   9.380  0.1945E+01  0.1112E+02
   9.390  0.1961E+01  0.1114E+02
   9.400  0.1970E+01  0.1116E+02
   9.410  0.1976E+01  0.1118E+02
   9.420  0.1980E+01  0.1120E+02
   9.430  0.1984E+01  0.1122E+02
   9.440  0.2002E+01  0.1124E+02
   9.450  0.2009E+01  0.1126E+02
   9.460  0.2004E+01  0.1128E+02
   9.470  0.1989E+01  0.1130E+02
   9.480  0.1961E+01  0.1132E+02
   9.490  0.1927E+01  0.1134E+02
   9.500  0.1921E+01  0.1136E+02
   9.510  0.1961E+01  0.1138E+02
   9.520  0.2095E+01  0.1140E+02
   9.530  0.1870E+01  0.1142E+02
   9.540  0.1856E+01  0.1144E+02
   9.550  0.1843E+01  0.1146E+02
   9.560  0.1829E+01  0.1147E+02
   9.570  0.1815E+01  0.1149E+02
   9.580  0.1800E+01  0.1151E+02
   9.590  0.1786E+01  0.1153E+02
   9.600  0.1771E+01  0.1155E+02
   9.610  0.1756E+01  0.1156E+02
   9.620  0.1741E+01  0.1158E+02
   9.630  0.1727E+01  0.1160E+02
   9.640  0.1713E+01  0.1162E+02
   9.650  0.1699E+01  0.1163E+02
   9.660  0.1686E+01  0.1165E+02
   9.670  0.1674E+01  0.1167E+02
   9.680  0.1661E+01  0.1168E+02
   9.690  0.1643E+01  0.1170E+02
   9.700  0.1624E+01  0.1172E+02
   9.710  0.1606E+01  0.1173E+02
   9.720  0.1587E+01  0.1175E+02
   9.730  0.1568E+01  0.1176E+02
   9.740  0.1549E+01  0.1178E+02
   9.750  0.1530E+01  0.1180E+02
   9.760  0.1510E+01  0.1181E+02
   9.770  0.1491E+01  0.1183E+02
   9.780  0.1470E+01  0.1184E+02
   9.790  0.1452E+01  0.1186E+02
   9.800  0.1433E+01  0.1187E+02
   9.810  0.1415E+01  0.1188E+02
   9.820  0.1399E+01  0.1190E+02
   9.830  0.1383E+01  0.1191E+02
   9.840  0.1367E+01  0.1193E+02
   9.850  0.1357E+01  0.1194E+02
   9.860  0.1347E+01  0.1195E+02
   9.870  0.1338E+01  0.1197E+02
   9.880  0.1328E+01  0.1198E+02
   9.890  0.1319E+01  0.1199E+02
   9.900  0.1311E+01  0.1201E+02
   9.910  0.1303E+01  0.1202E+02
   9.920  0.1296E+01  0.1203E+02
   9.930  0.1288E+01  0.1205E+02
   9.940  0.1273E+01  0.1206E+02
   9.950  0.1265E+01  0.1207E+02
   9.960  0.1262E+01  0.1208E+02
   9.970  0.1261E+01  0.1210E+02
   9.980  0.1260E+01  0.1211E+02
   9.990  0.1261E+01  0.1212E+02
  10.000  0.1262E+01  0.1213E+02
  10.010  0.1265E+01  0.1215E+02
  10.020  0.1268E+01  0.1216E+02
  10.030  0.1273E+01  0.1217E+02
  10.040  0.1278E+01  0.1218E+02
  10.050  0.1285E+01  0.1220E+02
  10.060  0.1293E+01  0.1221E+02
  10.070  0.1308E+01  0.1222E+02
  10.080  0.1294E+01  0.1224E+02
  10.090  0.1281E+01  0.1225E+02
  10.100  0.1269E+01  0.1226E+02
  10.110  0.1258E+01  0.1227E+02
  10.120  0.1248E+01  0.1229E+02
  10.130  0.1240E+01  0.1230E+02
  10.140  0.1232E+01  0.1231E+02
  10.150  0.1226E+01  0.1232E+02
  10.160  0.1220E+01  0.1234E+02
  10.170  0.1216E+01  0.1235E+02
  10.180  0.1216E+01  0.1236E+02
  10.190  0.1218E+01  0.1237E+02
  10.200  0.1222E+01  0.1238E+02
  10.210  0.1230E+01  0.1240E+02
  10.220  0.1240E+01  0.1241E+02
  10.230  0.1257E+01  0.1242E+02
  10.240  0.1246E+01  0.1243E+02
  10.250  0.1240E+01  0.1245E+02
  10.260  0.1257E+01  0.1246E+02
  10.270  0.1337E+01  0.1247E+02
  10.280  0.1439E+01  0.1249E+02
  10.290  0.1426E+01  0.1250E+02
  10.300  0.1408E+01  0.1251E+02
  10.310  0.1388E+01  0.1253E+02
  10.320  0.1367E+01  0.1254E+02
  10.330  0.1350E+01  0.1256E+02
  10.340  0.1330E+01  0.1257E+02
  10.350  0.1311E+01  0.1258E+02
  10.360  0.1293E+01  0.1260E+02
  10.370  0.1275E+01  0.1261E+02
  10.380  0.1257E+01  0.1262E+02
  10.390  0.1238E+01  0.1263E+02
  10.400  0.1218E+01  0.1265E+02
  10.410  0.1198E+01  0.1266E+02
  10.420  0.1178E+01  0.1267E+02
  10.430  0.1157E+01  0.1268E+02
  10.440  0.1135E+01  0.1269E+02
  10.450  0.1118E+01  0.1270E+02
  10.460  0.1101E+01  0.1272E+02
  10.470  0.1085E+01  0.1273E+02
  10.480  0.1072E+01  0.1274E+02
  10.490  0.1061E+01  0.1275E+02
  10.500  0.1050E+01  0.1276E+02
  10.510  0.1042E+01  0.1277E+02
  10.520  0.1041E+01  0.1278E+02
  10.530  0.1041E+01  0.1279E+02
  10.540  0.1040E+01  0.1280E+02
  10.550  0.1040E+01  0.1281E+02
  10.560  0.1041E+01  0.1282E+02
  10.570  0.1042E+01  0.1283E+02
  10.580  0.1045E+01  0.1284E+02
  10.590  0.1049E+01  0.1285E+02
  10.600  0.1083E+01  0.1286E+02
  10.610  0.1116E+01  0.1287E+02
  10.620  0.1125E+01  0.1288E+02
  10.630  0.1121E+01  0.1290E+02
  10.640  0.1128E+01  0.1291E+02
  10.650  0.1140E+01  0.1292E+02
  10.660  0.1157E+01  0.1293E+02
  10.670  0.1167E+01  0.1294E+02
  10.680  0.1172E+01  0.1295E+02
  10.690  0.1180E+01  0.1297E+02
  10.700  0.1193E+01  0.1298E+02
  10.710  0.1227E+01  0.1299E+02
  10.720  0.1255E+01  0.1300E+02
  10.730  0.1275E+01  0.1301E+02
  10.740  0.1288E+01  0.1303E+02
  10.750  0.1294E+01  0.1304E+02
  10.760  0.1292E+01  0.1305E+02
  10.770  0.1283E+01  0.1307E+02
  10.780  0.1267E+01  0.1308E+02
  10.790  0.1261E+01  0.1309E+02
  10.800  0.1259E+01  0.1310E+02
  10.810  0.1257E+01  0.1312E+02
  10.820  0.1255E+01  0.1313E+02
  10.830  0.1253E+01  0.1314E+02
  10.840  0.1251E+01  0.1315E+02
  10.850  0.1249E+01  0.1317E+02
  10.860  0.1247E+01  0.1318E+02
  10.870  0.1246E+01  0.1319E+02
  10.880  0.1244E+01  0.1320E+02
  10.890  0.1243E+01  0.1322E+02
  10.900  0.1242E+01  0.1323E+02
  10.910  0.1241E+01  0.1324E+02
  10.920  0.1240E+01  0.1325E+02
  10.930  0.1239E+01  0.1327E+02
  10.940  0.1238E+01  0.1328E+02
  10.950  0.1238E+01  0.1329E+02
  10.960  0.1237E+01  0.1330E+02
  10.970  0.1237E+01  0.1332E+02
  10.980  0.1237E+01  0.1333E+02
  10.990  0.1237E+01  0.1334E+02
  11.000  0.1235E+01  0.1335E+02
  11.010  0.1233E+01  0.1337E+02
  11.020  0.1232E+01  0.1338E+02
  11.030  0.1230E+01  0.1339E+02
  11.040  0.1228E+01  0.1340E+02
  11.050  0.1226E+01  0.1341E+02
  11.060  0.1224E+01  0.1343E+02
  11.070  0.1222E+01  0.1344E+02
  11.080  0.1221E+01  0.1345E+02
  11.090  0.1219E+01  0.1346E+02
  11.100  0.1218E+01  0.1348E+02
  11.110  0.1217E+01  0.1349E+02
  11.120  0.1219E+01  0.1350E+02
  11.130  0.1220E+01  0.1351E+02
  11.140  0.1223E+01  0.1352E+02
  11.150  0.1225E+01  0.1354E+02
  11.160  0.1226E+01  0.1355E+02
  11.170  0.1227E+01  0.1356E+02
  11.180  0.1226E+01  0.1357E+02
  11.190  0.1225E+01  0.1359E+02
  11.200  0.1223E+01  0.1360E+02
  11.210  0.1222E+01  0.1361E+02
  11.220  0.1222E+01  0.1362E+02
  11.230  0.1221E+01  0.1363E+02
  11.240  0.1220E+01  0.1365E+02
  11.250  0.1219E+01  0.1366E+02
  11.260  0.1217E+01  0.1367E+02
  11.270  0.1215E+01  0.1368E+02
  11.280  0.1213E+01  0.1370E+02
  11.290  0.1212E+01  0.1371E+02
  11.300  0.1197E+01  0.1372E+02
  11.310  0.1194E+01  0.1373E+02
  11.320  0.1195E+01  0.1374E+02
  11.330  0.1195E+01  0.1376E+02
  11.340  0.1196E+01  0.1377E+02
  11.350  0.1197E+01  0.1378E+02
  11.360  0.1198E+01  0.1379E+02
  11.370  0.1198E+01  0.1380E+02
  11.380  0.1198E+01  0.1382E+02
  11.390  0.1198E+01  0.1383E+02
  11.400  0.1197E+01  0.1384E+02
  11.410  0.1195E+01  0.1385E+02
  11.420  0.1193E+01  0.1386E+02
  11.430  0.1190E+01  0.1387E+02
  11.440  0.1187E+01  0.1389E+02
  11.450  0.1183E+01  0.1390E+02
  11.460  0.1179E+01  0.1391E+02
  11.470  0.1172E+01  0.1392E+02
  11.480  0.1164E+01  0.1393E+02
  11.490  0.1155E+01  0.1395E+02
  11.500  0.1145E+01  0.1396E+02
  11.510  0.1134E+01  0.1397E+02
  11.520  0.1122E+01  0.1398E+02
  11.530  0.1109E+01  0.1399E+02
  11.540  0.1097E+01  0.1400E+02
  11.550  0.1083E+01  0.1401E+02
  11.560  0.1070E+01  0.1402E+02
  11.570  0.1058E+01  0.1403E+02
  11.580  0.1050E+01  0.1404E+02
  11.590  0.1042E+01  0.1406E+02
  11.600  0.1034E+01  0.1407E+02
  11.610  0.1026E+01  0.1408E+02
  11.620  0.1018E+01  0.1409E+02
  11.630  0.1011E+01  0.1410E+02
  11.640  0.1011E+01  0.1411E+02
  11.650  0.1016E+01  0.1412E+02
  11.660  0.1027E+01  0.1413E+02
  11.670  0.1044E+01  0.1414E+02
  11.680  0.1026E+01  0.1415E+02
  11.690  0.1009E+01  0.1416E+02
  11.700  0.9709E+00  0.1417E+02
  11.710  0.9461E+00  0.1418E+02
  11.720  0.9359E+00  0.1419E+02
  11.730  0.9256E+00  0.1420E+02
  11.740  0.9154E+00  0.1420E+02
  11.750  0.9047E+00  0.1421E+02
  11.760  0.8952E+00  0.1422E+02
  11.770  0.8904E+00  0.1423E+02
  11.780  0.8866E+00  0.1424E+02
  11.790  0.8837E+00  0.1425E+02
  11.800  0.8819E+00  0.1426E+02
  11.810  0.8810E+00  0.1427E+02
  11.820  0.8806E+00  0.1428E+02
  11.830  0.8805E+00  0.1428E+02
  11.840  0.8808E+00  0.1429E+02
  11.850  0.8815E+00  0.1430E+02
  11.860  0.8825E+00  0.1431E+02
  11.870  0.8838E+00  0.1432E+02
  11.880  0.8853E+00  0.1433E+02
  11.890  0.8865E+00  0.1434E+02
  11.900  0.8895E+00  0.1435E+02
  11.910  0.8953E+00  0.1436E+02
  11.920  0.9036E+00  0.1436E+02
  11.930  0.9127E+00  0.1437E+02
  11.940  0.9226E+00  0.1438E+02
  11.950  0.9333E+00  0.1439E+02
  11.960  0.9448E+00  0.1440E+02
  11.970  0.9560E+00  0.1441E+02
  11.980  0.9670E+00  0.1442E+02
  11.990  0.9779E+00  0.1443E+02
  12.000  0.9888E+00  0.1444E+02
  12.010  0.9995E+00  0.1445E+02
  12.020  0.1010E+01  0.1446E+02
  12.030  0.1021E+01  0.1447E+02
  12.040  0.1031E+01  0.1448E+02
  12.050  0.1042E+01  0.1449E+02
  12.060  0.1052E+01  0.1450E+02
  12.070  0.1062E+01  0.1451E+02
  12.080  0.1072E+01  0.1452E+02
  12.090  0.1082E+01  0.1453E+02
  12.100  0.1092E+01  0.1454E+02
  12.110  0.1102E+01  0.1456E+02
  12.120  0.1112E+01  0.1457E+02
  12.130  0.1122E+01  0.1458E+02
  12.140  0.1131E+01  0.1459E+02
  12.150  0.1132E+01  0.1460E+02
  12.160  0.1132E+01  0.1461E+02
  12.170  0.1137E+01  0.1462E+02
  12.180  0.1141E+01  0.1463E+02
  12.190  0.1146E+01  0.1465E+02
  12.200  0.1150E+01  0.1466E+02
  12.210  0.1153E+01  0.1467E+02
  12.220  0.1157E+01  0.1468E+02
  12.230  0.1160E+01  0.1469E+02
  12.240  0.1162E+01  0.1470E+02
  12.250  0.1164E+01  0.1471E+02
  12.260  0.1166E+01  0.1473E+02
  12.270  0.1168E+01  0.1474E+02
  12.280  0.1169E+01  0.1475E+02
  12.290  0.1170E+01  0.1476E+02
  12.300  0.1170E+01  0.1477E+02
  12.310  0.1170E+01  0.1479E+02
  12.320  0.1170E+01  0.1480E+02
  12.330  0.1169E+01  0.1481E+02
  12.340  0.1168E+01  0.1482E+02
  12.350  0.1167E+01  0.1483E+02
  12.360  0.1164E+01  0.1484E+02
  12.370  0.1166E+01  0.1486E+02
  12.380  0.1164E+01  0.1487E+02
  12.390  0.1162E+01  0.1488E+02
  12.400  0.1161E+01  0.1489E+02
  12.410  0.1160E+01  0.1490E+02
  12.420  0.1159E+01  0.1491E+02
  12.430  0.1159E+01  0.1492E+02
  12.440  0.1159E+01  0.1494E+02
  12.450  0.1158E+01  0.1495E+02
  12.460  0.1157E+01  0.1496E+02
  12.470  0.1155E+01  0.1497E+02
  12.480  0.1152E+01  0.1498E+02
  12.490  0.1150E+01  0.1499E+02
  12.500  0.1145E+01  0.1501E+02
  12.510  0.1139E+01  0.1502E+02
  12.520  0.1132E+01  0.1503E+02
  12.530  0.1125E+01  0.1504E+02
  12.540  0.1118E+01  0.1505E+02
  12.550  0.1111E+01  0.1506E+02
  12.560  0.1104E+01  0.1507E+02
  12.570  0.1096E+01  0.1508E+02
  12.580  0.1088E+01  0.1510E+02
  12.590  0.1080E+01  0.1511E+02
  12.600  0.1071E+01  0.1512E+02
  12.610  0.1063E+01  0.1513E+02
  12.620  0.1054E+01  0.1514E+02
  12.630  0.1045E+01  0.1515E+02
  12.640  0.1035E+01  0.1516E+02
  12.650  0.1026E+01  0.1517E+02
  12.660  0.1016E+01  0.1518E+02
  12.670  0.1006E+01  0.1519E+02
  12.680  0.9957E+00  0.1520E+02
  12.690  0.9849E+00  0.1521E+02
  12.700  0.9735E+00  0.1522E+02
  12.710  0.9619E+00  0.1523E+02
  12.720  0.9500E+00  0.1524E+02
  12.730  0.9381E+00  0.1525E+02
  12.740  0.9260E+00  0.1526E+02
  12.750  0.9135E+00  0.1527E+02
  12.760  0.9004E+00  0.1528E+02
  12.770  0.8873E+00  0.1528E+02
  12.780  0.8741E+00  0.1529E+02
  12.790  0.8613E+00  0.1530E+02
  12.800  0.8489E+00  0.1531E+02
  12.810  0.8371E+00  0.1532E+02
  12.820  0.8258E+00  0.1533E+02
  12.830  0.8152E+00  0.1534E+02
  12.840  0.8051E+00  0.1534E+02
  12.850  0.7957E+00  0.1535E+02
  12.860  0.7868E+00  0.1536E+02
  12.870  0.7785E+00  0.1537E+02
  12.880  0.7708E+00  0.1537E+02
  12.890  0.7624E+00  0.1538E+02
  12.900  0.7538E+00  0.1539E+02
  12.910  0.7456E+00  0.1540E+02
  12.920  0.7376E+00  0.1541E+02
  12.930  0.7300E+00  0.1541E+02
  12.940  0.7226E+00  0.1542E+02
  12.950  0.7155E+00  0.1543E+02
  12.960  0.7088E+00  0.1543E+02
  12.970  0.7023E+00  0.1544E+02
  12.980  0.6962E+00  0.1545E+02
  12.990  0.6903E+00  0.1545E+02
  13.000  0.6847E+00  0.1546E+02
  13.010  0.6794E+00  0.1547E+02
  13.020  0.6745E+00  0.1548E+02
  13.030  0.6698E+00  0.1548E+02
  13.040  0.6654E+00  0.1549E+02
  13.050  0.6617E+00  0.1550E+02
  13.060  0.6586E+00  0.1550E+02
  13.070  0.6549E+00  0.1551E+02
  13.080  0.6508E+00  0.1552E+02
  13.090  0.6462E+00  0.1552E+02
  13.100  0.6417E+00  0.1553E+02
  13.110  0.6300E+00  0.1553E+02
  13.120  0.6209E+00  0.1554E+02
  13.130  0.6096E+00  0.1555E+02
  13.140  0.5961E+00  0.1555E+02
  13.150  0.5804E+00  0.1556E+02
  13.160  0.5626E+00  0.1556E+02
  13.170  0.5472E+00  0.1557E+02
  13.180  0.5320E+00  0.1558E+02
  13.190  0.5260E+00  0.1558E+02
  13.200  0.5208E+00  0.1559E+02
  13.210  0.5157E+00  0.1559E+02
  13.220  0.5109E+00  0.1560E+02
  13.230  0.5062E+00  0.1560E+02
  13.240  0.5017E+00  0.1561E+02
  13.250  0.4978E+00  0.1561E+02
  13.260  0.4942E+00  0.1562E+02
  13.270  0.4906E+00  0.1562E+02
  13.280  0.4871E+00  0.1563E+02
  13.290  0.4836E+00  0.1563E+02
  13.300  0.4801E+00  0.1564E+02
  13.310  0.4767E+00  0.1564E+02
  13.320  0.4732E+00  0.1565E+02
  13.330  0.4698E+00  0.1565E+02
  13.340  0.4664E+00  0.1565E+02
  13.350  0.4631E+00  0.1566E+02
  13.360  0.4597E+00  0.1566E+02
  13.370  0.4564E+00  0.1567E+02
  13.380  0.4531E+00  0.1567E+02
  13.390  0.4498E+00  0.1568E+02
  13.400  0.4466E+00  0.1568E+02
  13.410  0.4433E+00  0.1569E+02
  13.420  0.4401E+00  0.1569E+02
  13.430  0.4369E+00  0.1570E+02
  13.440  0.4338E+00  0.1570E+02
  13.450  0.4306E+00  0.1570E+02
  13.460  0.4275E+00  0.1571E+02
  13.470  0.4244E+00  0.1571E+02
  13.480  0.4214E+00  0.1572E+02
  13.490  0.4196E+00  0.1572E+02
  13.500  0.4194E+00  0.1573E+02
  13.510  0.4207E+00  0.1573E+02
  13.520  0.4237E+00  0.1573E+02
  13.530  0.4283E+00  0.1574E+02
  13.540  0.4345E+00  0.1574E+02
  13.550  0.4420E+00  0.1575E+02
  13.560  0.4494E+00  0.1575E+02
  13.570  0.4566E+00  0.1576E+02
  13.580  0.4636E+00  0.1576E+02
  13.590  0.4703E+00  0.1576E+02
  13.600  0.4768E+00  0.1577E+02
  13.610  0.4855E+00  0.1577E+02
  13.620  0.5021E+00  0.1578E+02
  13.630  0.5094E+00  0.1578E+02
  13.640  0.5073E+00  0.1579E+02
  13.650  0.4958E+00  0.1579E+02
  13.660  0.4750E+00  0.1580E+02
  13.670  0.4448E+00  0.1580E+02
  13.680  0.4052E+00  0.1581E+02
  13.690  0.3563E+00  0.1581E+02
  13.700  0.3018E+00  0.1582E+02
  13.710  0.2584E+00  0.1582E+02
  13.720  0.2317E+00  0.1582E+02
  13.730  0.2299E+00  0.1582E+02
  13.740  0.2281E+00  0.1583E+02
  13.750  0.2264E+00  0.1583E+02
  13.760  0.2246E+00  0.1583E+02
  13.770  0.2229E+00  0.1583E+02
  13.780  0.2211E+00  0.1583E+02
  13.790  0.2194E+00  0.1584E+02
  13.800  0.2177E+00  0.1584E+02
  13.810  0.2160E+00  0.1584E+02
  13.820  0.2143E+00  0.1584E+02
  13.830  0.2126E+00  0.1585E+02
  13.840  0.2110E+00  0.1585E+02
  13.850  0.2093E+00  0.1585E+02
  13.860  0.2077E+00  0.1585E+02
  13.870  0.2060E+00  0.1585E+02
  13.880  0.2044E+00  0.1586E+02
  13.890  0.2028E+00  0.1586E+02
  13.900  0.2012E+00  0.1586E+02
  13.910  0.1996E+00  0.1586E+02
  13.920  0.1980E+00  0.1586E+02
  13.930  0.1965E+00  0.1587E+02
  13.940  0.1950E+00  0.1587E+02
  13.950  0.1936E+00  0.1587E+02
  13.960  0.1921E+00  0.1587E+02
  13.970  0.1907E+00  0.1587E+02
  13.980  0.1894E+00  0.1588E+02
  13.990  0.1880E+00  0.1588E+02
  14.000  0.1867E+00  0.1588E+02
  14.010  0.1854E+00  0.1588E+02
  14.020  0.1841E+00  0.1588E+02
  14.030  0.1829E+00  0.1588E+02
  14.040  0.1817E+00  0.1589E+02
  14.050  0.1805E+00  0.1589E+02
  14.060  0.1793E+00  0.1589E+02
  14.070  0.1782E+00  0.1589E+02
  14.080  0.1771E+00  0.1589E+02
  14.090  0.1760E+00  0.1590E+02
  14.100  0.1750E+00  0.1590E+02
  14.110  0.1740E+00  0.1590E+02
  14.120  0.1730E+00  0.1590E+02
  14.130  0.1720E+00  0.1590E+02
  14.140  0.1711E+00  0.1590E+02
  14.150  0.1702E+00  0.1591E+02
  14.160  0.1701E+00  0.1591E+02
  14.170  0.1703E+00  0.1591E+02
  14.180  0.1704E+00  0.1591E+02
  14.190  0.1705E+00  0.1591E+02
  14.200  0.1706E+00  0.1591E+02
  14.210  0.1706E+00  0.1592E+02
  14.220  0.1706E+00  0.1592E+02
  14.230  0.1705E+00  0.1592E+02
  14.240  0.1704E+00  0.1592E+02
  14.250  0.1703E+00  0.1592E+02
  14.260  0.1702E+00  0.1592E+02
  14.270  0.1700E+00  0.1593E+02
  14.280  0.1698E+00  0.1593E+02
  14.290  0.1695E+00  0.1593E+02
  14.300  0.1692E+00  0.1593E+02
  14.310  0.1689E+00  0.1593E+02
  14.320  0.1685E+00  0.1593E+02
  14.330  0.1681E+00  0.1594E+02
  14.340  0.1677E+00  0.1594E+02
  14.350  0.1672E+00  0.1594E+02
  14.360  0.1668E+00  0.1594E+02
  14.370  0.1660E+00  0.1594E+02
  14.380  0.1649E+00  0.1594E+02
  14.390  0.1640E+00  0.1595E+02
  14.400  0.1634E+00  0.1595E+02
  14.410  0.1632E+00  0.1595E+02
  14.420  0.1632E+00  0.1595E+02
  14.430  0.1635E+00  0.1595E+02
  14.440  0.1641E+00  0.1595E+02
  14.450  0.1650E+00  0.1596E+02
  14.460  0.1662E+00  0.1596E+02
  14.470  0.1699E+00  0.1596E+02
  14.480  0.1737E+00  0.1596E+02
  14.490  0.1762E+00  0.1596E+02
  14.500  0.1775E+00  0.1596E+02
  14.510  0.1775E+00  0.1597E+02
  14.520  0.1763E+00  0.1597E+02
  14.530  0.1738E+00  0.1597E+02
  14.540  0.1702E+00  0.1597E+02
  14.550  0.1652E+00  0.1597E+02
  14.560  0.1591E+00  0.1597E+02
  14.570  0.1517E+00  0.1598E+02
  14.580  0.1431E+00  0.1598E+02
  14.590  0.1333E+00  0.1598E+02
  14.600  0.1222E+00  0.1598E+02
  14.610  0.1099E+00  0.1598E+02
  14.620  0.9637E-01  0.1598E+02
  14.630  0.8643E-01  0.1598E+02
  14.640  0.7982E-01  0.1598E+02
  14.650  0.7288E-01  0.1599E+02
  14.660  0.6558E-01  0.1599E+02
  14.670  0.5794E-01  0.1599E+02
  14.680  0.4996E-01  0.1599E+02
  14.690  0.4376E-01  0.1599E+02
  14.700  0.4274E-01  0.1599E+02
  14.710  0.4173E-01  0.1599E+02
  14.720  0.4074E-01  0.1599E+02
  14.730  0.3975E-01  0.1599E+02
  14.740  0.3878E-01  0.1599E+02
  14.750  0.3782E-01  0.1599E+02
  14.760  0.3687E-01  0.1599E+02
  14.770  0.3594E-01  0.1599E+02
  14.780  0.3501E-01  0.1599E+02
  14.790  0.3410E-01  0.1599E+02
  14.800  0.3320E-01  0.1599E+02
  14.810  0.3231E-01  0.1599E+02
  14.820  0.3144E-01  0.1599E+02
  14.830  0.3058E-01  0.1599E+02
  14.840  0.2972E-01  0.1599E+02
  14.850  0.2888E-01  0.1599E+02
  14.860  0.2806E-01  0.1599E+02
  14.870  0.2724E-01  0.1599E+02
  14.880  0.2644E-01  0.1599E+02
  14.890  0.2565E-01  0.1599E+02
  14.900  0.2487E-01  0.1599E+02
  14.910  0.2410E-01  0.1599E+02
  14.920  0.2334E-01  0.1600E+02
  14.930  0.2260E-01  0.1600E+02
  14.940  0.2187E-01  0.1600E+02
  14.950  0.2115E-01  0.1600E+02
  14.960  0.2044E-01  0.1600E+02
  14.970  0.1975E-01  0.1600E+02
  14.980  0.1906E-01  0.1600E+02
  14.990  0.1839E-01  0.1600E+02
  15.000  0.1773E-01  0.1600E+02
  15.010  0.1709E-01  0.1600E+02
  15.020  0.1645E-01  0.1600E+02
  15.030  0.1583E-01  0.1600E+02
  15.040  0.1522E-01  0.1600E+02
  15.050  0.1462E-01  0.1600E+02
  15.060  0.1403E-01  0.1600E+02
  15.070  0.1346E-01  0.1600E+02
  15.080  0.1289E-01  0.1600E+02
  15.090  0.1234E-01  0.1600E+02
  15.100  0.1180E-01  0.1600E+02
  15.110  0.1128E-01  0.1600E+02
  15.120  0.1076E-01  0.1600E+02
  15.130  0.1026E-01  0.1600E+02
  15.140  0.9769E-02  0.1600E+02
  15.150  0.9290E-02  0.1600E+02
  15.160  0.8824E-02  0.1600E+02
  15.170  0.8369E-02  0.1600E+02
  15.180  0.7926E-02  0.1600E+02
  15.190  0.7496E-02  0.1600E+02
  15.200  0.7077E-02  0.1600E+02
  15.210  0.6671E-02  0.1600E+02
  15.220  0.6276E-02  0.1600E+02
  15.230  0.5893E-02  0.1600E+02
  15.240  0.5523E-02  0.1600E+02
  15.250  0.5165E-02  0.1600E+02
  15.260  0.4818E-02  0.1600E+02
  15.270  0.4484E-02  0.1600E+02
  15.280  0.4161E-02  0.1600E+02
  15.290  0.3851E-02  0.1600E+02
  15.300  0.3553E-02  0.1600E+02
  15.310  0.3266E-02  0.1600E+02
  15.320  0.2992E-02  0.1600E+02
  15.330  0.2730E-02  0.1600E+02
  15.340  0.2480E-02  0.1600E+02
  15.350  0.2241E-02  0.1600E+02
  15.360  0.2015E-02  0.1600E+02
  15.370  0.1801E-02  0.1600E+02
  15.380  0.1599E-02  0.1600E+02
  15.390  0.1409E-02  0.1600E+02
  15.400  0.1231E-02  0.1600E+02
  15.410  0.1065E-02  0.1600E+02
  15.420  0.9107E-03  0.1600E+02
  15.430  0.7687E-03  0.1600E+02
  15.440  0.6387E-03  0.1600E+02
  15.450  0.5208E-03  0.1600E+02
  15.460  0.4149E-03  0.1600E+02
  15.470  0.3210E-03  0.1600E+02
  15.480  0.2391E-03  0.1600E+02
  15.490  0.1693E-03  0.1600E+02
  15.500  0.1115E-03  0.1600E+02
  15.510  0.6573E-04  0.1600E+02
  15.520  0.3198E-04  0.1600E+02
  15.530  0.1026E-04  0.1600E+02
  15.540  0.5634E-06  0.1600E+02
  15.550  0.0000E+00  0.1600E+02
  15.560  0.0000E+00  0.1600E+02
  15.570  0.0000E+00  0.1600E+02
  15.580  0.0000E+00  0.1600E+02
  15.590  0.0000E+00  0.1600E+02
  15.600  0.0000E+00  0.1600E+02
  15.610  0.0000E+00  0.1600E+02
  15.620  0.0000E+00  0.1600E+02
  15.630  0.0000E+00  0.1600E+02
  15.640  0.0000E+00  0.1600E+02
  15.650  0.0000E+00  0.1600E+02
  15.660  0.0000E+00  0.1600E+02
  15.670  0.0000E+00  0.1600E+02
  15.680  0.0000E+00  0.1600E+02
  15.690  0.0000E+00  0.1600E+02
  15.700  0.0000E+00  0.1600E+02
  15.710  0.0000E+00  0.1600E+02
  15.720  0.0000E+00  0.1600E+02
  15.730  0.0000E+00  0.1600E+02
  15.740  0.0000E+00  0.1600E+02
  15.750  0.0000E+00  0.1600E+02
  15.760  0.0000E+00  0.1600E+02
  15.770  0.0000E+00  0.1600E+02
  15.780  0.0000E+00  0.1600E+02
  15.790  0.0000E+00  0.1600E+02
  15.800  0.0000E+00  0.1600E+02
  15.810  0.0000E+00  0.1600E+02
  15.820  0.0000E+00  0.1600E+02
  15.830  0.0000E+00  0.1600E+02
  15.840  0.0000E+00  0.1600E+02
  15.850  0.0000E+00  0.1600E+02
  15.860  0.0000E+00  0.1600E+02
  15.870  0.0000E+00  0.1600E+02
  15.880  0.0000E+00  0.1600E+02
  15.890  0.0000E+00  0.1600E+02
  15.900  0.0000E+00  0.1600E+02
  15.910  0.0000E+00  0.1600E+02
  15.920  0.0000E+00  0.1600E+02
  15.930  0.0000E+00  0.1600E+02
  15.940  0.0000E+00  0.1600E+02
  15.950  0.0000E+00  0.1600E+02
  15.960  0.0000E+00  0.1600E+02
  15.970  0.0000E+00  0.1600E+02
  15.980  0.0000E+00  0.1600E+02
  15.990  0.0000E+00  0.1600E+02
  16.000  0.0000E+00  0.1600E+02
